Timestamp, COUNTER, INTERPOLATED, AF3, F7, F3, FC5, T7, P7, O1, O2, P8, T8, FC6, F4, F8, AF4, RAW_CQ, MARKER_HARDWARE, MARKERS
1649066937.6317, 22, 0, 4131.154, 4128.846, 4133.974, 4135.128, 4136.154, 4128.462, 4131.667, 4135, 4137.308, 4137.179, 4186.154, 4902.692, 4135.769, 4138.077, 0, 0, []
1649066937.6396, 23, 0, 4128.462, 4132.692, 4138.077, 4136.41, 4135.513, 4130.128, 4133.205, 4135, 4135, 4136.923, 4186.154, 4901.795, 4136.154, 4136.795, 0, 0, []
1649066937.6474, 24, 0, 4132.308, 4132.308, 4136.41, 4137.051, 4135, 4132.051, 4130.513, 4135.256, 4138.077, 4137.179, 4186.154, 4901.795, 4131.923, 4140.256, 0, 0, []
1649066937.6553, 25, 0, 4134.487, 4128.718, 4134.231, 4135.769, 4134.487, 4129.487, 4126.026, 4135.385, 4138.974, 4137.179, 4186.154, 4903.462, 4131.154, 4139.487, 0, 0, []
1649066937.6631, 26, 0, 4134.231, 4132.436, 4131.667, 4135.256, 4135.769, 4129.487, 4125.641, 4135.769, 4136.282, 4137.179, 4186.154, 4902.436, 4137.179, 4139.487, 0, 0, []
1649066937.6709, 27, 0, 4131.282, 4131.667, 4133.846, 4135.256, 4134.231, 4131.795, 4135.513, 4135.128, 4137.564, 4137.051, 4186.026, 4901.282, 4136.667, 4139.744, 0, 0, []
1649066937.6787, 28, 0, 4131.282, 4129.103, 4138.718, 4135.641, 4131.795, 4133.718, 4138.846, 4133.974, 4138.333, 4136.923, 4186.026, 4900.897, 4135, 4140.513, 0, 0, []
1649066937.6866, 29, 0, 4132.692, 4128.462, 4138.718, 4135, 4133.462, 4131.026, 4130.385, 4134.487, 4136.538, 4137.308, 4186.154, 4900, 4135.256, 4140.769, 0, 0, []
1649066937.6944, 30, 0, 4130.513, 4127.821, 4135.769, 4133.462, 4136.41, 4126.923, 4128.974, 4135.513, 4135.769, 4137.308, 4186.154, 4901.154, 4131.667, 4138.718, 0, 0, []
1649066937.7023, 31, 0, 4132.308, 4129.231, 4130.769, 4134.487, 4136.667, 4129.615, 4132.308, 4136.282, 4136.154, 4136.41, 4186.667, 4900.897, 4135.897, 4141.41, 0, 0, []
1649066937.71, 32, 0, 4133.59, 4128.59, 4131.154, 4137.051, 4136.026, 4131.795, 4130.897, 4136.41, 4136.795, 4138.333, 4187.821, 4899.615, 4136.667, 4140.769, 0, 0, []
1649066937.7179, 33, 0, 4131.538, 4129.872, 4135.256, 4136.667, 4135, 4130.385, 4130.256, 4136.154, 4136.538, 4140.256, 4188.333, 4901.154, 4132.051, 4136.923, 0, 0, []
1649066937.7257, 34, 0, 4131.154, 4131.41, 4136.154, 4134.744, 4135, 4130.897, 4130.769, 4136.026, 4136.538, 4137.949, 4187.051, 4900.385, 4135.256, 4138.205, 0, 0, []
1649066937.7336, 35, 0, 4133.974, 4128.333, 4133.462, 4135.513, 4137.692, 4132.179, 4131.282, 4136.154, 4137.436, 4135.897, 4185.256, 4898.718, 4136.154, 4139.487, 0, 0, []
1649066937.7414, 36, 0, 4136.923, 4131.795, 4130.128, 4136.026, 4138.59, 4132.179, 4129.744, 4136.41, 4137.436, 4136.923, 4184.872, 4899.231, 4136.41, 4141.282, 0, 0, []
1649066937.7493, 37, 0, 4134.487, 4135.256, 4133.59, 4135.897, 4136.795, 4129.744, 4128.846, 4135.256, 4135.897, 4137.179, 4185.513, 4901.282, 4137.179, 4140.769, 0, 0, []
1649066937.7572, 38, 0, 4133.333, 4132.051, 4135.256, 4136.282, 4138.077, 4129.872, 4132.564, 4134.231, 4135.769, 4136.538, 4184.615, 4902.179, 4137.051, 4139.103, 0, 0, []
1649066937.7652, 39, 0, 4132.949, 4131.41, 4130.128, 4135.256, 4138.333, 4130.385, 4130.641, 4134.487, 4136.795, 4138.333, 4184.872, 4903.462, 4139.744, 4139.744, 0, 0, []
1649066937.7731, 40, 0, 4129.615, 4133.718, 4132.051, 4135.641, 4135.513, 4129.872, 4127.179, 4134.744, 4136.026, 4138.718, 4187.949, 4905.641, 4136.538, 4137.436, 0, 0, []
1649066937.7811, 41, 0, 4131.667, 4133.59, 4134.872, 4135.641, 4134.359, 4132.179, 4128.718, 4133.974, 4136.41, 4136.923, 4188.077, 4902.821, 4133.59, 4138.077, 0, 0, []
1649066937.7889, 42, 0, 4132.692, 4128.59, 4135.128, 4135.385, 4135.385, 4131.667, 4128.718, 4134.872, 4137.692, 4138.462, 4185.897, 4900.256, 4135.769, 4138.462, 0, 0, []
1649066937.7969, 43, 0, 4129.359, 4130.769, 4134.487, 4135.897, 4135.256, 4130.513, 4127.051, 4136.41, 4136.667, 4140.385, 4185.769, 4901.026, 4137.692, 4137.308, 0, 0, []
1649066937.8048, 44, 0, 4130.128, 4136.026, 4132.692, 4135.513, 4135.128, 4130.897, 4130, 4135.641, 4135.385, 4137.821, 4186.538, 4899.231, 4138.718, 4138.718, 0, 0, []
1649066937.8127, 45, 0, 4132.308, 4129.615, 4134.103, 4135.256, 4135.513, 4129.359, 4131.538, 4135.128, 4135.897, 4135.641, 4186.154, 4900, 4137.949, 4137.949, 0, 0, []
1649066937.8207, 46, 0, 4133.333, 4130.769, 4132.821, 4136.41, 4137.308, 4130.128, 4128.077, 4136.538, 4136.538, 4136.923, 4186.538, 4901.154, 4139.744, 4141.538, 0, 0, []
1649066937.8285, 47, 0, 4132.821, 4135.897, 4130.897, 4137.051, 4135.897, 4130.128, 4132.564, 4137.949, 4135.513, 4137.179, 4187.436, 4899.359, 4137.821, 4142.308, 0, 0, []
1649066937.8364, 48, 0, 4132.179, 4132.051, 4131.41, 4135.769, 4132.308, 4130.641, 4137.436, 4137.308, 4135.897, 4136.667, 4187.564, 4899.872, 4132.564, 4136.795, 0, 0, []
1649066937.8442, 49, 0, 4134.231, 4131.538, 4130.769, 4134.872, 4132.949, 4132.436, 4130.256, 4135.897, 4138.718, 4138.333, 4187.308, 4901.795, 4135.128, 4138.462, 0, 0, []
1649066937.8522, 50, 0, 4133.462, 4130.385, 4132.949, 4136.154, 4136.538, 4131.538, 4125.769, 4135.385, 4138.59, 4137.821, 4187.051, 4901.282, 4137.692, 4140, 0, 0, []
1649066937.8601, 51, 0, 4133.846, 4129.103, 4133.077, 4136.667, 4135.385, 4129.872, 4129.872, 4134.744, 4136.41, 4137.179, 4186.923, 4899.872, 4136.795, 4139.359, 0, 0, []
1649066937.868, 52, 0, 4134.103, 4132.564, 4131.41, 4135.897, 4133.59, 4129.231, 4130.897, 4134.872, 4136.538, 4140.513, 4186.41, 4901.667, 4135.513, 4139.231, 0, 0, []
1649066937.8759, 53, 0, 4131.41, 4132.436, 4133.205, 4136.282, 4135.513, 4131.795, 4127.821, 4136.282, 4137.692, 4139.359, 4185.897, 4903.077, 4135.128, 4137.821, 0, 0, []
1649066937.8839, 54, 0, 4132.179, 4130.128, 4132.692, 4136.538, 4135, 4133.718, 4128.59, 4136.538, 4137.308, 4138.462, 4186.154, 4900.128, 4139.615, 4138.077, 0, 0, []
1649066937.8918, 55, 0, 4131.154, 4129.103, 4134.487, 4135.256, 4133.077, 4131.154, 4133.974, 4136.026, 4136.026, 4142.692, 4186.154, 4897.692, 4135, 4137.051, 0, 0, []
1649066937.8998, 56, 0, 4128.974, 4132.949, 4136.538, 4135.256, 4136.026, 4131.154, 4135.385, 4136.154, 4135.128, 4140.513, 4186.154, 4898.846, 4130.641, 4139.487, 0, 0, []
1649066937.9076, 57, 0, 4130.513, 4135.128, 4132.821, 4136.667, 4136.026, 4130.385, 4129.359, 4136.538, 4135.641, 4136.41, 4186.154, 4901.923, 4136.154, 4140.897, 0, 0, []
1649066937.9156, 58, 0, 4132.308, 4134.744, 4134.359, 4136.538, 4132.179, 4128.846, 4126.667, 4136.154, 4136.667, 4139.231, 4186.154, 4902.949, 4136.41, 4136.667, 0, 0, []
1649066937.9235, 59, 0, 4131.923, 4133.205, 4137.051, 4135.769, 4133.462, 4130.513, 4127.821, 4136.154, 4137.308, 4141.538, 4186.154, 4902.564, 4136.41, 4137.179, 0, 0, []
1649066937.9315, 60, 0, 4131.667, 4126.282, 4135.769, 4135.897, 4137.692, 4130.513, 4128.718, 4136.026, 4137.949, 4139.359, 4186.154, 4903.333, 4135.897, 4137.692, 0, 0, []
1649066937.9394, 61, 0, 4133.846, 4127.692, 4131.795, 4135.897, 4136.923, 4130.128, 4131.282, 4136.41, 4136.923, 4138.462, 4186.154, 4901.154, 4133.462, 4138.974, 0, 0, []
1649066937.9471, 62, 0, 4131.795, 4131.282, 4129.103, 4134.231, 4134.744, 4131.282, 4129.615, 4137.436, 4136.026, 4136.667, 4186.154, 4901.154, 4133.462, 4141.41, 0, 0, []
1649066937.955, 63, 0, 4129.103, 4128.333, 4132.949, 4135.641, 4135.256, 4130.385, 4127.564, 4137.308, 4137.436, 4135.897, 4186.154, 4904.615, 4134.744, 4140.128, 0, 0, []
1649066937.9628, 64, 0, 4133.462, 4129.487, 4134.872, 4137.692, 4135.897, 4130.256, 4128.718, 4136.538, 4138.333, 4138.846, 4186.026, 4903.974, 4139.487, 4142.051, 0, 0, []
1649066937.9707, 65, 0, 4133.205, 4129.487, 4133.974, 4133.974, 4135.897, 4131.41, 4129.487, 4136.154, 4136.667, 4137.564, 4186.282, 4904.359, 4137.051, 4141.667, 0, 0, []
1649066937.9785, 66, 0, 4129.487, 4131.154, 4131.154, 4133.462, 4134.615, 4133.59, 4130, 4136.41, 4136.41, 4135.641, 4186.282, 4903.974, 4131.795, 4137.949, 0, 0, []
1649066937.9863, 67, 0, 4131.41, 4136.026, 4131.282, 4135.256, 4132.564, 4132.179, 4128.974, 4136.026, 4135.641, 4137.949, 4185.897, 4900, 4133.718, 4137.821, 0, 0, []
1649066937.9941, 68, 0, 4132.692, 4133.59, 4133.462, 4133.462, 4133.333, 4129.872, 4129.231, 4134.744, 4133.846, 4139.359, 4186.667, 4901.667, 4135.385, 4138.205, 0, 0, []
1649066938.002, 69, 0, 4133.077, 4131.026, 4132.051, 4133.846, 4133.333, 4132.564, 4129.359, 4134.744, 4135, 4137.692, 4187.308, 4904.872, 4136.41, 4140.128, 0, 0, []
1649066938.0098, 70, 0, 4132.949, 4130.385, 4134.487, 4135.385, 4132.821, 4131.795, 4129.359, 4135.513, 4135.513, 4136.026, 4186.154, 4902.949, 4134.872, 4137.436, 0, 0, []
1649066938.0177, 71, 0, 4132.564, 4131.667, 4134.615, 4133.846, 4133.462, 4128.333, 4130.897, 4136.154, 4134.487, 4137.564, 4185, 4900.128, 4136.282, 4136.026, 0, 0, []
1649066938.0254, 72, 0, 4132.436, 4135.385, 4130, 4134.615, 4133.333, 4129.487, 4129.615, 4136.154, 4135.897, 4138.333, 4186.154, 4900, 4140.256, 4140.256, 0, 0, []
1649066938.0333, 73, 0, 4131.282, 4132.179, 4132.436, 4137.564, 4132.564, 4133.59, 4128.59, 4136.154, 4137.308, 4137.692, 4186.41, 4900.769, 4134.487, 4138.974, 0, 0, []
1649066938.0411, 74, 0, 4132.308, 4131.923, 4133.333, 4137.179, 4134.872, 4135.769, 4127.051, 4136.154, 4136.026, 4137.821, 4185.641, 4901.667, 4132.692, 4138.205, 0, 0, []
1649066938.0491, 75, 0, 4131.923, 4133.974, 4131.923, 4136.282, 4136.667, 4131.282, 4127.051, 4136.282, 4136.026, 4137.949, 4186.667, 4903.205, 4136.282, 4137.692, 0, 0, []
1649066938.057, 76, 0, 4131.154, 4132.564, 4133.462, 4136.538, 4135.385, 4130.385, 4130.513, 4136.154, 4137.564, 4137.821, 4188.077, 4901.923, 4136.667, 4135.769, 0, 0, []
1649066938.0649, 77, 0, 4133.718, 4132.821, 4133.077, 4135, 4134.231, 4135.385, 4130.769, 4136.026, 4137.564, 4138.077, 4187.308, 4902.692, 4137.949, 4137.436, 0, 0, []
1649066938.0728, 78, 0, 4134.231, 4131.538, 4133.59, 4134.103, 4133.718, 4134.359, 4130, 4136.41, 4136.667, 4137.692, 4186.026, 4906.282, 4135.897, 4136.923, 0, 0, []
1649066938.0808, 79, 0, 4132.179, 4130, 4132.821, 4133.846, 4136.026, 4130.513, 4129.872, 4135.897, 4137.051, 4137.821, 4186.154, 4903.333, 4135.641, 4137.308, 0, 0, []
1649066938.0887, 80, 0, 4131.282, 4129.487, 4129.872, 4134.359, 4135.513, 4130.641, 4131.41, 4134.744, 4137.564, 4138.846, 4186.41, 4901.282, 4135.897, 4139.487, 0, 0, []
1649066938.0967, 81, 0, 4133.077, 4133.333, 4132.692, 4136.667, 4130.769, 4133.462, 4130.256, 4134.872, 4135.385, 4138.333, 4186.154, 4905.385, 4133.718, 4140.641, 0, 0, []
1649066938.1045, 82, 0, 4133.462, 4134.615, 4133.846, 4135.513, 4131.154, 4132.692, 4130.256, 4135.385, 4134.872, 4137.821, 4186.154, 4902.051, 4135, 4140.769, 0, 0, []
1649066938.1123, 83, 0, 4130.641, 4129.744, 4134.872, 4133.205, 4136.026, 4128.333, 4137.179, 4135.769, 4137.949, 4139.231, 4186.154, 4896.795, 4133.077, 4136.923, 0, 0, []
1649066938.1202, 84, 0, 4132.179, 4132.692, 4136.282, 4135.128, 4136.41, 4130.641, 4136.667, 4135.897, 4138.077, 4138.59, 4186.026, 4900.769, 4136.154, 4137.564, 0, 0, []
1649066938.128, 85, 0, 4133.077, 4133.718, 4135.128, 4135.641, 4135.641, 4131.923, 4129.615, 4135.256, 4135.641, 4136.923, 4186.538, 4904.487, 4140, 4140.128, 0, 0, []
1649066938.136, 86, 0, 4131.41, 4129.744, 4135.513, 4135.128, 4136.923, 4129.872, 4129.103, 4134.487, 4135.385, 4137.179, 4186.282, 4901.41, 4134.103, 4138.077, 0, 0, []
1649066938.1438, 87, 0, 4133.59, 4131.538, 4132.821, 4134.744, 4135.256, 4130, 4130.769, 4134.103, 4136.795, 4136.923, 4185.513, 4900.897, 4133.718, 4139.744, 0, 0, []
1649066938.1518, 88, 0, 4132.436, 4131.667, 4134.103, 4133.59, 4135.128, 4129.103, 4129.615, 4134.615, 4135.897, 4137.051, 4187.051, 4904.615, 4135.641, 4139.359, 0, 0, []
1649066938.1597, 89, 0, 4131.41, 4130.513, 4136.923, 4133.205, 4136.667, 4129.487, 4129.872, 4136.026, 4136.282, 4138.846, 4188.718, 4904.231, 4133.462, 4138.205, 0, 0, []
1649066938.1677, 90, 0, 4133.718, 4130.769, 4135.513, 4135.641, 4136.154, 4131.795, 4133.205, 4136.282, 4137.564, 4138.846, 4186.923, 4903.333, 4131.538, 4139.103, 0, 0, []
1649066938.1756, 91, 0, 4133.59, 4133.59, 4134.231, 4137.051, 4136.026, 4132.692, 4132.308, 4135.385, 4137.308, 4136.923, 4184.744, 4906.795, 4134.359, 4138.59, 0, 0, []
1649066938.1835, 92, 0, 4133.077, 4136.282, 4134.231, 4135.385, 4136.282, 4131.923, 4130.385, 4135.385, 4136.923, 4136.667, 4184.744, 4906.282, 4135.897, 4140.769, 0, 0, []
1649066938.1914, 93, 0, 4131.923, 4129.615, 4136.026, 4134.744, 4136.282, 4130.513, 4135.897, 4135.513, 4135.897, 4138.205, 4185.256, 4901.282, 4130.256, 4139.359, 0, 0, []
1649066938.1994, 94, 0, 4132.308, 4126.538, 4131.795, 4133.846, 4136.667, 4131.538, 4136.154, 4135, 4135.897, 4138.718, 4184.744, 4898.974, 4133.077, 4138.59, 0, 0, []
1649066938.2073, 95, 0, 4131.538, 4130.385, 4131.154, 4135.641, 4135.769, 4131.538, 4130.385, 4135.128, 4136.667, 4137.692, 4185, 4900.897, 4138.333, 4139.359, 0, 0, []
1649066938.2153, 96, 0, 4128.846, 4128.846, 4135, 4138.59, 4135.897, 4130.513, 4134.487, 4135.256, 4135.513, 4136.923, 4187.436, 4903.718, 4134.103, 4138.077, 0, 0, []
1649066938.2231, 97, 0, 4130, 4130.897, 4131.538, 4135.513, 4137.821, 4130.769, 4135.897, 4135.128, 4136.154, 4137.436, 4188.462, 4903.333, 4133.846, 4141.41, 0, 0, []
1649066938.2311, 98, 0, 4131.154, 4135.513, 4132.308, 4133.333, 4133.462, 4131.282, 4128.205, 4135.128, 4139.231, 4137.051, 4186.923, 4903.846, 4134.872, 4140.128, 0, 0, []
1649066938.239, 99, 0, 4131.154, 4134.744, 4132.949, 4136.282, 4129.231, 4133.333, 4127.564, 4135.128, 4138.077, 4136.667, 4186.667, 4903.718, 4132.564, 4137.051, 0, 0, []
1649066938.2469, 100, 0, 4130.641, 4129.103, 4129.872, 4135.641, 4133.077, 4133.462, 4131.923, 4135.128, 4134.872, 4137.179, 4187.308, 4900.128, 4135.128, 4139.615, 0, 0, []
1649066938.2548, 101, 0, 4129.744, 4126.795, 4134.744, 4132.821, 4137.179, 4132.179, 4133.077, 4135.128, 4135.769, 4136.538, 4186.667, 4900.513, 4135.128, 4140, 0, 0, []
1649066938.2625, 102, 0, 4133.205, 4132.308, 4135.256, 4135.128, 4135.385, 4133.205, 4132.564, 4135, 4136.923, 4136.923, 4185.769, 4902.436, 4134.872, 4140.513, 0, 0, []
1649066938.2704, 103, 0, 4133.974, 4131.667, 4132.179, 4137.308, 4131.154, 4128.974, 4128.718, 4135.385, 4135.385, 4138.205, 4185.769, 4901.667, 4135.128, 4138.333, 0, 0, []
1649066938.2782, 104, 0, 4131.923, 4128.974, 4135.897, 4135.641, 4133.974, 4129.231, 4126.538, 4135, 4135.897, 4138.333, 4186.41, 4901.41, 4134.487, 4136.923, 0, 0, []
1649066938.2861, 105, 0, 4133.077, 4131.923, 4138.205, 4135.897, 4133.59, 4133.205, 4128.462, 4134.872, 4137.821, 4137.308, 4186.795, 4902.308, 4135.641, 4139.615, 0, 0, []
1649066938.2939, 106, 0, 4132.436, 4131.795, 4135.641, 4137.564, 4124.487, 4130.385, 4130.897, 4136.282, 4136.41, 4136.282, 4185.385, 4901.795, 4133.974, 4138.462, 0, 0, []
1649066938.3017, 107, 0, 4132.436, 4131.026, 4130.513, 4135.128, 4126.795, 4130.513, 4130.256, 4136.923, 4136.026, 4138.718, 4184.487, 4900.769, 4135.513, 4137.949, 0, 0, []
1649066938.3095, 108, 0, 4133.077, 4128.333, 4131.41, 4132.179, 4137.564, 4131.795, 4128.333, 4135.897, 4138.974, 4141.41, 4185.256, 4902.436, 4135.256, 4137.564, 0, 0, []
1649066938.3174, 109, 0, 4133.077, 4127.949, 4135.256, 4135.513, 4134.487, 4130.641, 4128.718, 4135, 4138.718, 4139.231, 4185, 4901.667, 4133.333, 4138.846, 0, 0, []
1649066938.3252, 110, 0, 4134.615, 4132.179, 4133.974, 4136.41, 4128.846, 4131.41, 4130.641, 4134.872, 4137.564, 4138.205, 4184.872, 4902.949, 4137.821, 4142.436, 0, 0, []
1649066938.3331, 111, 0, 4133.718, 4132.051, 4133.077, 4133.077, 4135.385, 4131.41, 4135.897, 4135.641, 4139.359, 4140, 4185, 4906.41, 4136.41, 4139.872, 0, 0, []
1649066938.3408, 112, 0, 4133.333, 4131.154, 4131.154, 4134.615, 4137.308, 4130.769, 4135.256, 4137.308, 4139.231, 4138.333, 4185, 4905.128, 4136.026, 4140.128, 0, 0, []
1649066938.3487, 113, 0, 4132.308, 4128.718, 4131.795, 4135.641, 4133.333, 4129.615, 4131.667, 4137.692, 4136.026, 4136.026, 4185, 4905.128, 4136.923, 4141.282, 0, 0, []
1649066938.3565, 114, 0, 4131.923, 4128.718, 4135.513, 4133.718, 4134.872, 4131.154, 4133.205, 4136.026, 4135.513, 4136.923, 4185, 4906.154, 4134.744, 4137.436, 0, 0, []
1649066938.3644, 115, 0, 4134.103, 4132.692, 4134.615, 4133.59, 4135.769, 4132.051, 4130.897, 4134.359, 4137.949, 4138.718, 4184.872, 4901.795, 4136.026, 4137.564, 0, 0, []
1649066938.3722, 116, 0, 4131.538, 4131.795, 4132.051, 4134.359, 4135.256, 4130.769, 4125.641, 4135.128, 4138.718, 4137.308, 4185.128, 4899.872, 4135, 4138.077, 0, 0, []
1649066938.3801, 117, 0, 4131.026, 4131.795, 4130.897, 4133.974, 4135.513, 4131.667, 4126.923, 4135.769, 4137.308, 4134.615, 4184.744, 4901.795, 4134.103, 4139.231, 0, 0, []
1649066938.388, 118, 0, 4134.103, 4129.487, 4133.077, 4135.897, 4133.718, 4132.051, 4133.846, 4133.718, 4137.051, 4142.308, 4184.872, 4902.949, 4135.256, 4141.41, 0, 0, []
1649066938.396, 119, 0, 4133.974, 4125.385, 4133.846, 4136.538, 4134.487, 4131.41, 4136.282, 4133.333, 4137.821, 4149.359, 4186.026, 4903.077, 4133.205, 4140.513, 0, 0, []
1649066938.4039, 120, 0, 4132.821, 4130.769, 4131.026, 4134.744, 4136.795, 4130.513, 4131.41, 4135.513, 4137.692, 4142.949, 4186.923, 4902.436, 4133.333, 4139.744, 0, 0, []
1649066938.4118, 121, 0, 4132.692, 4133.974, 4132.436, 4136.667, 4133.59, 4129.744, 4127.051, 4135.513, 4136.795, 4137.436, 4187.308, 4903.462, 4135.256, 4138.462, 0, 0, []
1649066938.4196, 122, 0, 4133.718, 4131.667, 4132.692, 4136.667, 4131.41, 4132.436, 4128.077, 4135.385, 4137.308, 4139.872, 4187.564, 4904.359, 4138.205, 4138.974, 0, 0, []
1649066938.4274, 123, 0, 4131.795, 4131.667, 4131.538, 4134.487, 4132.564, 4131.282, 4128.077, 4137.564, 4137.821, 4138.846, 4187.051, 4902.436, 4136.923, 4138.59, 0, 0, []
1649066938.4353, 124, 0, 4130.513, 4132.949, 4131.923, 4136.667, 4131.41, 4129.744, 4129.744, 4137.564, 4137.692, 4136.154, 4186.154, 4903.205, 4134.103, 4135.897, 0, 0, []
1649066938.4431, 125, 0, 4132.949, 4132.692, 4131.026, 4137.179, 4132.692, 4132.308, 4130.385, 4135.128, 4137.179, 4137.949, 4186.154, 4902.179, 4136.667, 4137.692, 0, 0, []
1649066938.4511, 126, 0, 4131.154, 4127.436, 4132.692, 4135.385, 4135, 4130.897, 4128.205, 4135.385, 4136.795, 4137.564, 4186.41, 4897.949, 4134.615, 4137.051, 0, 0, []
1649066938.4589, 127, 0, 4130.256, 4129.359, 4131.923, 4136.026, 4134.103, 4128.59, 4130, 4136.795, 4137.436, 4136.923, 4186.154, 4898.846, 4134.615, 4138.59, 57, 0, []
1649066938.4669, 0, 0, 4131.154, 4134.103, 4131.538, 4137.308, 4132.051, 4130.769, 4130, 4137.179, 4136.282, 4138.718, 4186.154, 4903.205, 4139.103, 4140.128, 0, 0, []
1649066938.4748, 1, 0, 4130.641, 4132.949, 4135.256, 4136.538, 4133.718, 4133.462, 4128.333, 4137.564, 4134.487, 4139.615, 4186.026, 4903.59, 4134.487, 4135.897, 0, 0, []
1649066938.4828, 2, 0, 4133.077, 4136.795, 4131.795, 4135.385, 4135.385, 4132.821, 4129.103, 4136.282, 4137.179, 4138.846, 4186.154, 4900.513, 4132.308, 4138.718, 0, 0, []
1649066938.4907, 3, 0, 4132.436, 4135.128, 4132.949, 4135.256, 4133.077, 4128.718, 4129.359, 4134.744, 4139.615, 4136.667, 4186.282, 4901.41, 4133.846, 4141.282, 0, 0, []
1649066938.4987, 4, 0, 4131.538, 4130.513, 4138.974, 4136.923, 4130.641, 4130.769, 4128.077, 4135.641, 4137.564, 4137.179, 4186.154, 4901.538, 4133.333, 4140.897, 0, 0, []
1649066938.5065, 5, 0, 4132.821, 4133.205, 4134.359, 4137.051, 4132.564, 4133.462, 4128.077, 4136.923, 4136.026, 4137.051, 4186.282, 4898.333, 4134.103, 4141.538, 0, 0, []
1649066938.5145, 6, 0, 4132.051, 4135.897, 4132.692, 4134.103, 4137.564, 4130.385, 4129.359, 4135.769, 4137.692, 4136.026, 4186.282, 4899.744, 4133.077, 4138.974, 0, 0, []
1649066938.5224, 7, 0, 4131.667, 4132.949, 4135.513, 4132.821, 4135.769, 4130.128, 4127.436, 4134.487, 4137.436, 4135.897, 4185.897, 4901.154, 4135.385, 4139.872, 0, 0, []
1649066938.5304, 8, 0, 4129.487, 4127.564, 4132.564, 4136.282, 4131.154, 4131.026, 4127.821, 4135.128, 4135, 4136.41, 4186.538, 4899.615, 4133.846, 4140.385, 0, 0, []
1649066938.5383, 9, 0, 4129.615, 4130.385, 4129.231, 4137.436, 4133.077, 4131.667, 4128.718, 4136.538, 4135.513, 4136.282, 4187.564, 4899.615, 4132.308, 4139.615, 0, 0, []
1649066938.5462, 10, 0, 4132.821, 4134.103, 4132.949, 4134.615, 4135, 4131.41, 4130.641, 4136.154, 4136.795, 4136.154, 4186.538, 4902.179, 4135.897, 4139.615, 0, 0, []
1649066938.5541, 11, 0, 4134.359, 4132.308, 4138.077, 4135.513, 4135.641, 4130.128, 4135.897, 4135.385, 4136.026, 4136.667, 4184.872, 4902.564, 4133.205, 4138.205, 0, 0, []
1649066938.5619, 12, 0, 4135.128, 4134.487, 4132.179, 4137.179, 4134.744, 4131.282, 4132.308, 4135.385, 4136.282, 4138.846, 4184.744, 4901.667, 4133.077, 4140.641, 0, 0, []
1649066938.5698, 13, 0, 4131.538, 4133.333, 4130.385, 4133.462, 4134.231, 4130.128, 4130.256, 4135.513, 4135.513, 4140.385, 4185.385, 4902.949, 4135, 4141.795, 0, 0, []
1649066938.5776, 14, 0, 4129.231, 4130.256, 4136.667, 4131.41, 4136.154, 4130.641, 4135.769, 4135.897, 4134.487, 4138.846, 4184.872, 4902.308, 4136.026, 4141.667, 0, 0, []
1649066938.5854, 15, 0, 4132.949, 4130, 4137.051, 4134.615, 4136.026, 4131.795, 4132.179, 4137.308, 4135.769, 4136.923, 4184.744, 4901.154, 4138.205, 4141.795, 0, 0, []
1649066938.5932, 16, 0, 4134.744, 4129.359, 4132.692, 4137.051, 4133.333, 4130.385, 4127.821, 4137.179, 4136.795, 4137.949, 4185.897, 4902.051, 4133.59, 4137.051, 0, 0, []
1649066938.6011, 17, 0, 4132.051, 4131.923, 4129.359, 4134.872, 4132.564, 4131.026, 4131.41, 4135.769, 4137.308, 4139.615, 4187.308, 4901.41, 4131.795, 4137.949, 0, 0, []
1649066938.6089, 18, 0, 4129.359, 4132.692, 4132.308, 4134.872, 4135.769, 4130, 4132.051, 4135.385, 4137.179, 4139.359, 4187.436, 4901.667, 4134.872, 4137.821, 0, 0, []
1649066938.6168, 19, 0, 4130.897, 4133.205, 4134.231, 4137.308, 4135.897, 4130.769, 4129.487, 4135.128, 4136.154, 4138.462, 4186.923, 4901.923, 4136.795, 4134.359, 0, 0, []
1649066938.6245, 20, 0, 4133.59, 4133.974, 4132.564, 4136.41, 4133.974, 4132.821, 4128.846, 4135.128, 4136.026, 4139.872, 4186.41, 4899.872, 4136.154, 4139.872, 0, 0, []
1649066938.6324, 21, 0, 4132.949, 4129.487, 4134.359, 4135.513, 4135.128, 4131.667, 4127.564, 4135.128, 4136.795, 4139.487, 4186.154, 4901.538, 4134.359, 4141.538, 0, 0, []
1649066938.6402, 22, 0, 4131.667, 4129.231, 4132.949, 4136.795, 4135, 4131.154, 4127.436, 4134.872, 4135.769, 4136.795, 4185.897, 4902.308, 4136.667, 4137.051, 0, 0, []
1649066938.6481, 23, 0, 4129.487, 4128.974, 4131.154, 4136.538, 4133.974, 4131.282, 4131.026, 4135.256, 4136.538, 4138.846, 4186.154, 4899.872, 4137.692, 4136.923, 0, 0, []
1649066938.6559, 24, 0, 4129.359, 4130.385, 4135.128, 4135.641, 4134.615, 4131.154, 4134.359, 4135.385, 4138.077, 4141.154, 4186.41, 4901.154, 4135.641, 4141.538, 0, 0, []
1649066938.6637, 25, 0, 4133.077, 4134.103, 4133.846, 4135.641, 4134.487, 4129.231, 4130.897, 4134.359, 4136.026, 4138.59, 4185, 4901.538, 4137.692, 4142.051, 0, 0, []
1649066938.6715, 26, 0, 4132.051, 4130.128, 4132.308, 4136.282, 4134.487, 4127.308, 4127.179, 4135.385, 4134.487, 4136.795, 4184.615, 4901.538, 4134.744, 4138.333, 0, 0, []
1649066938.6794, 27, 0, 4131.538, 4130, 4135.128, 4135.513, 4134.487, 4129.872, 4128.718, 4136.795, 4136.795, 4138.333, 4186.923, 4902.308, 4133.205, 4143.718, 0, 0, []
1649066938.6872, 28, 0, 4134.231, 4133.077, 4135.769, 4134.231, 4134.487, 4131.538, 4133.974, 4136.538, 4137.051, 4138.462, 4186.538, 4903.205, 4136.026, 4143.718, 0, 0, []
1649066938.6952, 29, 0, 4134.103, 4130.128, 4135.256, 4135.641, 4134.487, 4129.487, 4133.718, 4136.282, 4135.513, 4137.692, 4185, 4902.821, 4133.205, 4136.026, 0, 0, []
1649066938.703, 30, 0, 4134.615, 4132.821, 4132.821, 4135.897, 4134.487, 4129.615, 4130, 4136.538, 4136.667, 4139.872, 4186.282, 4900, 4133.59, 4139.359, 0, 0, []
1649066938.711, 31, 0, 4134.872, 4133.846, 4133.462, 4131.795, 4134.487, 4130.513, 4134.359, 4136.41, 4138.462, 4140.897, 4187.051, 4899.103, 4134.231, 4140.641, 0, 0, []
1649066938.7189, 32, 0, 4132.564, 4130.513, 4133.718, 4131.795, 4134.487, 4131.026, 4133.59, 4136.41, 4137.308, 4137.051, 4185.385, 4901.154, 4132.692, 4137.564, 0, 0, []
1649066938.7269, 33, 0, 4130.128, 4132.949, 4131.538, 4136.667, 4134.487, 4129.103, 4129.872, 4135.641, 4135.641, 4135.897, 4184.744, 4903.59, 4134.231, 4139.103, 0, 0, []
1649066938.7348, 34, 0, 4130, 4135.385, 4132.179, 4137.692, 4134.487, 4128.846, 4134.231, 4132.692, 4136.154, 4140.641, 4184.872, 4903.462, 4134.103, 4140.385, 0, 0, []
1649066938.7425, 35, 0, 4131.923, 4133.462, 4133.077, 4135.256, 4134.487, 4131.923, 4134.744, 4132.308, 4137.564, 4141.795, 4184.872, 4900, 4136.282, 4140.641, 0, 0, []
1649066938.7505, 36, 0, 4132.051, 4130.513, 4134.872, 4136.538, 4134.487, 4130.769, 4132.436, 4135.897, 4137.692, 4136.923, 4185.256, 4898.077, 4135.256, 4138.846, 0, 0, []
1649066938.7584, 37, 0, 4132.821, 4132.692, 4130.641, 4136.538, 4134.487, 4130.256, 4133.846, 4137.308, 4137.308, 4136.282, 4184.744, 4900.256, 4134.744, 4138.59, 0, 0, []
1649066938.7664, 38, 0, 4133.205, 4133.59, 4128.718, 4134.872, 4134.487, 4130.769, 4134.615, 4135.128, 4135.769, 4139.231, 4185.769, 4904.103, 4136.41, 4139.744, 0, 0, []
1649066938.7743, 39, 0, 4133.59, 4133.205, 4137.692, 4136.41, 4134.487, 4130.641, 4134.103, 4133.846, 4134.103, 4138.974, 4185.897, 4903.462, 4132.308, 4138.718, 0, 0, []
1649066938.7822, 40, 0, 4137.308, 4134.872, 4137.179, 4136.154, 4134.487, 4131.538, 4133.077, 4135.385, 4135, 4137.692, 4183.205, 4901.41, 4132.949, 4141.538, 0, 0, []
1649066938.7901, 41, 0, 4136.026, 4131.026, 4132.308, 4134.872, 4134.231, 4129.103, 4132.564, 4136.026, 4136.923, 4137.949, 4188.59, 4901.667, 4135.641, 4140.128, 0, 0, []
1649066938.7981, 42, 0, 4132.564, 4132.564, 4136.154, 4135.385, 4134.615, 4129.872, 4133.718, 4134.359, 4137.051, 4138.205, 4192.821, 4899.872, 4136.795, 4137.179, 0, 0, []
1649066938.806, 43, 0, 4132.564, 4133.974, 4135.897, 4135.769, 4135.385, 4131.154, 4130.513, 4134.487, 4136.538, 4137.436, 4186.667, 4900.385, 4135, 4140.641, 0, 0, []
1649066938.814, 44, 0, 4131.41, 4128.718, 4132.821, 4135.769, 4135.385, 4130.385, 4127.436, 4135.641, 4136.667, 4137.051, 4183.718, 4905.385, 4131.282, 4141.282, 0, 0, []
1649066938.8218, 45, 0, 4133.462, 4129.103, 4132.308, 4135.641, 4135.385, 4130.641, 4130.641, 4135.128, 4137.051, 4137.949, 4185.641, 4901.154, 4136.282, 4142.051, 0, 0, []
1649066938.8298, 46, 0, 4134.359, 4129.231, 4133.974, 4135.641, 4135.897, 4128.59, 4131.538, 4135.897, 4136.154, 4138.333, 4188.974, 4896.923, 4136.41, 4140, 0, 0, []
1649066938.8377, 47, 0, 4133.077, 4130.256, 4135.128, 4135.256, 4136.538, 4128.59, 4131.282, 4136.923, 4135.769, 4138.077, 4192.692, 4901.41, 4131.923, 4138.333, 0, 0, []
1649066938.8457, 48, 0, 4133.462, 4136.026, 4134.487, 4135.385, 4136.154, 4130.513, 4130.513, 4134.615, 4136.795, 4138.333, 4189.615, 4902.949, 4134.487, 4140.641, 0, 0, []
1649066938.8536, 49, 0, 4131.026, 4132.821, 4133.718, 4136.154, 4134.615, 4129.744, 4129.615, 4133.59, 4136.026, 4137.821, 4183.333, 4900.641, 4135.641, 4137.308, 0, 0, []
1649066938.8615, 50, 0, 4133.205, 4129.872, 4131.41, 4136.282, 4134.872, 4128.59, 4129.744, 4136.026, 4135.513, 4137.821, 4185.641, 4899.487, 4134.744, 4136.795, 0, 0, []
1649066938.8694, 51, 0, 4136.923, 4133.718, 4134.103, 4136.026, 4135.897, 4130.256, 4128.205, 4136.538, 4137.821, 4139.103, 4187.949, 4901.41, 4131.795, 4138.974, 0, 0, []
1649066938.8774, 52, 0, 4133.077, 4133.846, 4134.359, 4136.154, 4135.256, 4133.077, 4128.077, 4134.872, 4137.436, 4138.205, 4184.872, 4904.103, 4132.564, 4138.974, 0, 0, []
1649066938.8853, 53, 0, 4131.026, 4129.231, 4129.744, 4136.282, 4133.846, 4131.154, 4128.846, 4134.872, 4135, 4137.692, 4185.769, 4902.949, 4137.949, 4139.359, 0, 0, []
1649066938.8931, 54, 0, 4135, 4126.795, 4134.103, 4136.154, 4133.974, 4128.462, 4127.949, 4135.513, 4135.641, 4139.231, 4187.051, 4900.385, 4132.821, 4139.103, 0, 0, []
1649066938.9009, 55, 0, 4137.949, 4131.923, 4136.026, 4136.538, 4136.538, 4130.897, 4123.59, 4136.154, 4136.538, 4138.59, 4186.154, 4900.256, 4130.513, 4140.385, 0, 0, []
1649066938.9087, 56, 0, 4133.59, 4130.897, 4134.231, 4135.385, 4135.513, 4129.872, 4122.179, 4136.538, 4135.385, 4137.436, 4185.769, 4903.333, 4136.667, 4138.846, 0, 0, []
1649066938.9166, 57, 0, 4131.667, 4126.538, 4135.385, 4134.487, 4132.821, 4127.821, 4126.923, 4136.026, 4136.41, 4138.846, 4184.615, 4903.077, 4136.923, 4136.795, 0, 0, []
1649066938.9244, 58, 0, 4135.641, 4131.923, 4135, 4134.744, 4134.103, 4130.897, 4128.59, 4136.154, 4137.179, 4139.231, 4185, 4901.026, 4136.667, 4140.769, 0, 0, []
1649066938.9323, 59, 0, 4133.333, 4134.359, 4133.333, 4133.333, 4136.026, 4130.513, 4129.615, 4136.667, 4135.256, 4136.282, 4185.128, 4901.795, 4136.154, 4141.154, 0, 0, []
1649066938.94, 60, 0, 4131.538, 4131.538, 4131.154, 4133.333, 4135.769, 4129.487, 4129.487, 4135.769, 4135, 4136.795, 4184.872, 4902.308, 4136.795, 4140, 0, 0, []
1649066938.9479, 61, 0, 4133.846, 4126.795, 4133.462, 4135.769, 4135, 4129.103, 4126.41, 4134.487, 4135.513, 4138.462, 4185, 4905.256, 4136.538, 4139.872, 0, 0, []
1649066938.9557, 62, 0, 4133.846, 4130.385, 4134.615, 4136.41, 4135, 4129.231, 4127.564, 4135.769, 4135.769, 4135.769, 4185, 4907.179, 4131.923, 4138.718, 0, 0, []
1649066938.9636, 63, 0, 4131.026, 4134.615, 4128.846, 4134.872, 4134.231, 4130.769, 4129.231, 4137.692, 4136.282, 4138.077, 4185, 4900.769, 4131.923, 4140.256, 0, 0, []
1649066938.9714, 64, 0, 4128.718, 4128.462, 4131.538, 4135, 4136.026, 4129.231, 4127.564, 4136.923, 4136.154, 4143.59, 4185, 4898.974, 4133.333, 4138.462, 0, 0, []
1649066938.9792, 65, 0, 4132.051, 4130.385, 4135.513, 4135.641, 4137.308, 4130.128, 4127.821, 4135.897, 4136.026, 4141.026, 4185, 4902.436, 4136.154, 4138.333, 0, 0, []
1649066938.987, 66, 0, 4133.205, 4137.179, 4133.718, 4135, 4133.846, 4132.821, 4128.205, 4136.538, 4136.282, 4135.769, 4185, 4899.487, 4136.667, 4139.487, 0, 0, []
1649066938.995, 67, 0, 4129.231, 4133.59, 4133.205, 4135.385, 4132.308, 4131.795, 4127.821, 4136.41, 4136.026, 4136.41, 4185, 4897.179, 4133.846, 4139.359, 0, 0, []
1649066939.0029, 68, 0, 4131.282, 4130, 4131.538, 4135.256, 4135.128, 4130.385, 4126.795, 4136.154, 4136.41, 4136.795, 4185, 4901.795, 4136.667, 4142.436, 0, 0, []
1649066939.0109, 69, 0, 4133.718, 4129.744, 4133.077, 4135.513, 4136.282, 4130.256, 4126.923, 4136.538, 4136.41, 4135.641, 4184.872, 4904.231, 4135.641, 4138.718, 0, 0, []
1649066939.0187, 70, 0, 4133.205, 4131.923, 4135.769, 4137.564, 4134.744, 4130.513, 4128.205, 4135.897, 4135.256, 4137.179, 4184.744, 4901.538, 4133.077, 4135.769, 0, 0, []
1649066939.0267, 71, 0, 4132.821, 4131.41, 4132.949, 4137.051, 4134.359, 4129.359, 4128.974, 4134.615, 4137.308, 4137.179, 4185.513, 4900.256, 4132.692, 4138.718, 0, 0, []
1649066939.0346, 72, 0, 4133.462, 4129.487, 4135.897, 4135.385, 4137.051, 4130, 4129.231, 4134.359, 4138.333, 4136.41, 4184.872, 4903.333, 4130.641, 4139.103, 0, 0, []
1649066939.0424, 73, 0, 4136.41, 4132.179, 4139.359, 4135.128, 4136.026, 4131.538, 4128.846, 4134.487, 4135.769, 4138.718, 4184.103, 4905.385, 4134.487, 4140.128, 0, 0, []
1649066939.0503, 74, 0, 4134.872, 4130, 4136.026, 4133.974, 4131.795, 4129.872, 4132.179, 4134.615, 4135.385, 4140.769, 4187.949, 4901.667, 4136.538, 4138.077, 0, 0, []
1649066939.058, 75, 0, 4133.846, 4126.923, 4131.154, 4133.333, 4132.564, 4131.026, 4132.949, 4135, 4136.538, 4140.385, 4189.744, 4898.59, 4133.077, 4137.821, 0, 0, []
1649066939.0659, 76, 0, 4134.359, 4130.385, 4131.154, 4135.128, 4136.026, 4131.026, 4127.821, 4136.026, 4136.41, 4137.436, 4186.282, 4903.718, 4132.821, 4140.897, 0, 0, []
1649066939.0737, 77, 0, 4131.795, 4134.103, 4135.385, 4137.564, 4135.385, 4129.615, 4129.487, 4136.41, 4136.154, 4133.59, 4185.897, 4906.923, 4134.103, 4138.077, 0, 0, []
1649066939.0817, 78, 0, 4132.051, 4135.897, 4133.59, 4137.436, 4135, 4131.923, 4131.538, 4135.897, 4137.179, 4134.744, 4187.692, 4901.538, 4136.923, 4138.59, 0, 0, []
1649066939.0896, 79, 0, 4133.205, 4131.667, 4134.487, 4133.718, 4133.718, 4129.744, 4127.051, 4134.872, 4137.564, 4138.974, 4186.026, 4899.487, 4135, 4141.154, 0, 0, []
1649066939.0975, 80, 0, 4134.103, 4129.359, 4138.333, 4133.59, 4133.333, 4128.205, 4127.821, 4134.487, 4137.051, 4138.974, 4185.513, 4901.795, 4134.872, 4139.103, 0, 0, []
1649066939.1054, 81, 0, 4133.077, 4132.308, 4137.051, 4136.667, 4133.333, 4129.487, 4130.897, 4134.872, 4136.923, 4136.282, 4187.821, 4901.154, 4138.462, 4138.077, 0, 0, []
1649066939.1134, 82, 0, 4130.128, 4129.359, 4136.154, 4135, 4130.513, 4129.744, 4129.872, 4134.744, 4136.41, 4135.641, 4187.564, 4902.692, 4132.179, 4138.846, 0, 0, []
1649066939.1213, 83, 0, 4133.205, 4129.615, 4134.615, 4131.667, 4129.615, 4130.256, 4128.205, 4134.231, 4136.154, 4137.436, 4187.051, 4901.282, 4131.026, 4140.769, 0, 0, []
1649066939.1293, 84, 0, 4136.026, 4134.103, 4133.59, 4134.231, 4135, 4130.513, 4128.846, 4135.385, 4136.154, 4138.333, 4187.436, 4898.718, 4135.385, 4139.615, 0, 0, []
1649066939.1371, 85, 0, 4133.974, 4134.359, 4133.077, 4137.308, 4137.949, 4130.769, 4128.718, 4135.513, 4136.41, 4135.897, 4187.436, 4901.41, 4134.359, 4141.41, 0, 0, []
1649066939.1451, 86, 0, 4131.026, 4130.128, 4133.846, 4134.744, 4132.821, 4130, 4127.821, 4134.487, 4136.41, 4137.179, 4187.308, 4901.282, 4135, 4142.821, 0, 0, []
1649066939.153, 87, 0, 4128.846, 4126.41, 4134.744, 4132.692, 4130.128, 4129.744, 4128.974, 4135.897, 4136.282, 4143.462, 4187.308, 4897.436, 4132.821, 4138.462, 0, 0, []
1649066939.161, 88, 0, 4132.692, 4133.333, 4130.128, 4134.103, 4133.205, 4132.308, 4128.718, 4136.282, 4136.923, 4142.436, 4187.308, 4898.205, 4131.923, 4141.154, 0, 0, []
1649066939.1689, 89, 0, 4134.872, 4138.462, 4131.538, 4136.41, 4136.026, 4131.154, 4129.359, 4134.615, 4137.051, 4135.513, 4187.308, 4904.359, 4132.949, 4141.154, 0, 0, []
1649066939.1768, 90, 0, 4132.179, 4133.333, 4135, 4137.564, 4135.897, 4131.154, 4131.282, 4135.256, 4136.795, 4135.128, 4187.308, 4905, 4133.333, 4137.051, 0, 0, []
1649066939.1847, 91, 0, 4132.821, 4127.821, 4133.462, 4136.282, 4134.231, 4132.436, 4128.077, 4136.667, 4136.538, 4139.231, 4187.308, 4900.897, 4136.667, 4140, 0, 0, []
1649066939.1925, 92, 0, 4133.974, 4126.923, 4133.333, 4134.487, 4134.615, 4130.256, 4126.538, 4135.641, 4136.154, 4139.231, 4187.308, 4900.256, 4137.821, 4140.256, 0, 0, []
1649066939.2004, 93, 0, 4133.077, 4132.308, 4130.385, 4134.487, 4135.256, 4131.154, 4128.59, 4134.744, 4137.051, 4137.949, 4187.308, 4900.897, 4136.667, 4139.359, 0, 0, []
1649066939.2082, 94, 0, 4131.667, 4130.641, 4130.256, 4135.769, 4133.59, 4132.564, 4130.128, 4134.744, 4137.692, 4136.923, 4187.308, 4902.308, 4134.103, 4139.487, 0, 0, []
1649066939.216, 95, 0, 4133.462, 4128.077, 4133.077, 4136.923, 4130.513, 4130.769, 4127.564, 4136.154, 4137.051, 4134.744, 4187.308, 4904.231, 4133.59, 4138.205, 0, 0, []
1649066939.2238, 96, 0, 4136.154, 4133.205, 4131.667, 4134.744, 4131.667, 4130.897, 4128.333, 4137.179, 4137.821, 4138.718, 4187.308, 4901.154, 4136.538, 4140, 0, 0, []
1649066939.2317, 97, 0, 4132.564, 4132.564, 4133.205, 4133.205, 4136.026, 4132.564, 4136.795, 4136.41, 4138.077, 4143.59, 4187.308, 4898.205, 4134.744, 4139.103, 0, 0, []
1649066939.2395, 98, 0, 4130.769, 4130.128, 4133.718, 4135.641, 4136.538, 4133.462, 4136.282, 4135.769, 4136.538, 4140.256, 4187.308, 4900.385, 4136.154, 4138.974, 0, 0, []
1649066939.2474, 99, 0, 4133.333, 4128.077, 4130.641, 4135.385, 4134.487, 4130.385, 4134.103, 4136.154, 4135.897, 4136.282, 4187.308, 4899.872, 4138.333, 4141.154, 0, 0, []
1649066939.2551, 100, 0, 4133.205, 4128.59, 4132.179, 4133.718, 4133.462, 4130, 4137.308, 4136.026, 4135.641, 4138.205, 4187.308, 4898.205, 4134.872, 4137.692, 0, 0, []
1649066939.263, 101, 0, 4132.179, 4133.333, 4133.974, 4134.359, 4133.205, 4132.564, 4134.744, 4136.667, 4136.026, 4138.077, 4187.308, 4899.744, 4137.179, 4135.897, 0, 0, []
1649066939.2708, 102, 0, 4132.051, 4132.179, 4133.59, 4135, 4135.128, 4130.769, 4131.538, 4136.795, 4137.692, 4135.128, 4187.436, 4900.128, 4134.744, 4138.205, 0, 0, []
1649066939.2787, 103, 0, 4133.718, 4132.564, 4129.103, 4134.615, 4136.41, 4130.769, 4133.205, 4136.026, 4136.795, 4135.128, 4187.308, 4894.744, 4131.026, 4141.923, 0, 0, []
1649066939.2865, 104, 0, 4132.179, 4133.846, 4127.308, 4134.744, 4135.641, 4131.795, 4134.103, 4136.154, 4137.308, 4135.641, 4187.436, 4892.949, 4135, 4141.282, 0, 0, []
1649066939.2943, 105, 0, 4131.667, 4128.974, 4133.846, 4137.051, 4135.769, 4129.744, 4130.897, 4136.282, 4139.231, 4136.282, 4187.692, 4897.821, 4136.282, 4137.179, 0, 0, []
1649066939.3021, 106, 0, 4135.641, 4131.026, 4132.179, 4135.641, 4135.897, 4129.103, 4131.795, 4136.282, 4138.59, 4137.051, 4186.795, 4899.231, 4135.897, 4137.692, 0, 0, []
1649066939.3101, 107, 0, 4133.077, 4134.615, 4127.179, 4132.308, 4135.513, 4131.795, 4138.205, 4136.154, 4138.718, 4137.051, 4185.641, 4897.308, 4133.718, 4138.077, 0, 0, []
1649066939.318, 108, 0, 4131.154, 4132.692, 4129.359, 4134.615, 4135.641, 4133.59, 4137.692, 4135.641, 4138.718, 4138.718, 4185.256, 4895.513, 4134.615, 4141.795, 0, 0, []
1649066939.326, 109, 0, 4134.744, 4132.179, 4126.538, 4133.205, 4135.641, 4131.538, 4134.231, 4136.41, 4137.179, 4139.615, 4186.026, 4894.872, 4137.051, 4142.949, 0, 0, []
1649066939.3338, 110, 0, 4134.487, 4136.026, 4118.974, 4130.385, 4136.026, 4135.641, 4136.795, 4138.974, 4136.282, 4137.821, 4184.615, 4893.462, 4137.949, 4140.769, 0, 0, []
1649066939.3416, 111, 0, 4134.231, 4139.744, 4115.769, 4132.179, 4136.923, 4144.359, 4138.718, 4137.436, 4137.949, 4138.59, 4182.692, 4891.154, 4140.769, 4144.615, 0, 0, []
1649066939.3495, 112, 0, 4134.231, 4139.487, 4114.231, 4128.974, 4136.795, 4147.821, 4140.385, 4138.333, 4141.154, 4141.538, 4186.154, 4886.538, 4138.718, 4143.718, 0, 0, []
1649066939.3573, 113, 0, 4132.821, 4144.487, 4101.026, 4124.487, 4138.462, 4150.897, 4147.564, 4147.308, 4139.487, 4139.615, 4179.359, 4876.667, 4141.154, 4143.846, 0, 0, []
1649066939.3652, 114, 0, 4133.718, 4148.59, 4088.205, 4124.744, 4141.795, 4153.846, 4152.436, 4155, 4141.41, 4137.821, 4166.41, 4873.333, 4147.821, 4148.205, 0, 0, []
1649066939.3729, 115, 0, 4134.615, 4143.077, 4093.077, 4124.487, 4140.769, 4151.282, 4153.718, 4153.205, 4146.154, 4139.359, 4173.205, 4877.436, 4141.795, 4142.436, 0, 0, []
1649066939.3808, 116, 0, 4132.051, 4139.359, 4100.128, 4123.846, 4137.308, 4146.154, 4149.231, 4144.487, 4143.59, 4139.231, 4187.179, 4877.051, 4136.923, 4137.564, 0, 0, []
1649066939.3886, 117, 0, 4130.256, 4136.538, 4103.333, 4125.256, 4135.897, 4140.385, 4140.256, 4137.308, 4138.718, 4137.564, 4185.769, 4876.026, 4135.897, 4138.59, 0, 0, []
1649066939.3966, 118, 0, 4131.923, 4134.615, 4109.359, 4128.077, 4137.692, 4141.282, 4142.308, 4135.769, 4138.59, 4138.205, 4180.385, 4880.641, 4131.538, 4135.385, 0, 0, []
1649066939.4045, 119, 0, 4130.641, 4134.872, 4111.41, 4133.718, 4137.821, 4143.59, 4145.897, 4137.179, 4138.205, 4137.821, 4185.385, 4883.846, 4128.333, 4129.615, 0, 0, []
1649066939.4124, 120, 0, 4127.692, 4131.538, 4110.128, 4136.154, 4136.538, 4140.128, 4142.821, 4136.154, 4135.897, 4136.154, 4185.641, 4883.462, 4123.59, 4125.513, 0, 0, []
1649066939.4203, 121, 0, 4131.282, 4129.872, 4108.974, 4131.282, 4139.744, 4141.795, 4144.487, 4134.744, 4137.436, 4135.897, 4176.154, 4881.667, 4123.974, 4129.103, 0, 0, []
1649066939.4283, 122, 0, 4130, 4130.513, 4112.308, 4133.974, 4141.154, 4144.615, 4154.103, 4137.949, 4137.692, 4137.949, 4177.436, 4881.667, 4124.103, 4131.667, 0, 0, []
1649066939.4362, 123, 0, 4125.385, 4132.564, 4113.59, 4140.256, 4138.333, 4143.974, 4155, 4138.974, 4136.282, 4140.128, 4179.615, 4880.769, 4120.769, 4128.462, 0, 0, []
1649066939.4442, 124, 0, 4128.333, 4135.897, 4110.256, 4133.718, 4138.333, 4145.128, 4149.487, 4138.462, 4137.821, 4139.103, 4174.103, 4877.564, 4122.949, 4128.846, 0, 0, []
1649066939.452, 125, 0, 4129.487, 4134.872, 4111.923, 4131.667, 4139.872, 4146.026, 4153.59, 4143.718, 4137.821, 4136.154, 4176.667, 4881.154, 4122.821, 4130.897, 0, 0, []
1649066939.46, 126, 0, 4129.872, 4133.974, 4114.103, 4134.744, 4138.974, 4145.128, 4152.949, 4145.513, 4137.692, 4137.436, 4186.923, 4884.872, 4122.692, 4132.692, 0, 0, []
1649066939.4679, 127, 0, 4130.513, 4130.513, 4116.667, 4125.641, 4136.923, 4142.949, 4141.667, 4139.615, 4136.41, 4138.333, 4185.128, 4885, 4124.231, 4129.487, 57, 0, []
1649066939.4759, 0, 0, 4129.103, 4129.103, 4120.897, 4123.974, 4139.359, 4142.308, 4142.564, 4136.795, 4136.795, 4136.795, 4178.59, 4885.897, 4122.308, 4127.692, 0, 0, []
1649066939.4838, 1, 0, 4128.077, 4131.538, 4116.795, 4132.051, 4139.615, 4141.282, 4148.462, 4138.846, 4138.333, 4136.41, 4182.564, 4882.692, 4122.436, 4129.744, 0, 0, []
1649066939.4917, 2, 0, 4123.077, 4127.051, 4111.923, 4131.795, 4136.795, 4140.385, 4146.795, 4137.821, 4135.641, 4137.051, 4185.385, 4875.897, 4120.513, 4123.462, 0, 0, []
1649066939.4996, 3, 0, 4120.641, 4125.385, 4107.949, 4127.436, 4140.897, 4141.923, 4145.128, 4129.615, 4134.872, 4137.179, 4177.692, 4871.923, 4119.103, 4121.282, 0, 0, []
1649066939.5074, 4, 0, 4121.282, 4126.923, 4102.949, 4126.41, 4146.923, 4142.821, 4145.769, 4121.667, 4138.462, 4137.179, 4168.077, 4874.487, 4119.231, 4123.59, 0, 0, []
1649066939.5153, 5, 0, 4118.718, 4122.436, 4101.41, 4123.974, 4142.821, 4140.513, 4141.282, 4119.487, 4132.051, 4136.923, 4172.564, 4875.641, 4116.538, 4119.359, 0, 0, []
1649066939.5231, 6, 0, 4114.872, 4120.385, 4104.615, 4122.564, 4133.974, 4136.154, 4131.923, 4116.923, 4120.641, 4137.179, 4186.538, 4872.051, 4116.154, 4116.923, 0, 0, []
1649066939.531, 7, 0, 4116.282, 4119.487, 4113.333, 4122.564, 4135.897, 4131.795, 4124.103, 4112.564, 4125.128, 4136.41, 4184.487, 4878.205, 4114.615, 4118.462, 0, 0, []
1649066939.5387, 8, 0, 4125.769, 4122.692, 4121.026, 4121.282, 4138.974, 4128.333, 4120.385, 4115, 4133.974, 4136.667, 4181.026, 4897.179, 4118.974, 4124.487, 0, 0, []
1649066939.5466, 9, 0, 4133.718, 4128.974, 4135.256, 4130.769, 4130.385, 4121.923, 4116.923, 4121.41, 4133.205, 4138.846, 4195.385, 4915, 4131.41, 4134.103, 0, 0, []
1649066939.5544, 10, 0, 4138.846, 4133.846, 4160.128, 4139.487, 4122.308, 4116.41, 4109.359, 4126.795, 4133.462, 4136.154, 4204.103, 4930.641, 4138.846, 4144.103, 0, 0, []
1649066939.5623, 11, 0, 4142.436, 4136.026, 4176.923, 4135.769, 4118.205, 4115, 4105.513, 4134.872, 4137.051, 4138.974, 4203.718, 4946.41, 4141.795, 4151.538, 0, 0, []
1649066939.5701, 12, 0, 4143.718, 4128.846, 4182.821, 4136.154, 4115.513, 4110.385, 4106.667, 4142.308, 4135, 4149.359, 4213.718, 4950.385, 4140.769, 4149.872, 0, 0, []
1649066939.5779, 13, 0, 4143.718, 4126.41, 4180.256, 4138.205, 4116.667, 4108.846, 4101.41, 4136.154, 4135.385, 4149.103, 4218.077, 4943.462, 4142.821, 4148.718, 0, 0, []
1649066939.5857, 14, 0, 4137.692, 4127.436, 4175.897, 4137.692, 4120.256, 4111.154, 4099.231, 4126.923, 4138.59, 4143.205, 4206.282, 4942.179, 4141.026, 4149.744, 0, 0, []
1649066939.5936, 15, 0, 4134.744, 4124.744, 4174.231, 4137.692, 4119.487, 4112.051, 4104.744, 4131.154, 4135.769, 4143.59, 4199.487, 4938.974, 4135.256, 4146.923, 0, 0, []
1649066939.6014, 16, 0, 4139.359, 4128.077, 4158.077, 4135.385, 4123.718, 4120.385, 4112.949, 4135, 4134.103, 4142.564, 4201.026, 4919.872, 4141.026, 4145.256, 0, 0, []
1649066939.6093, 17, 0, 4136.41, 4129.103, 4138.974, 4135.128, 4135.256, 4128.718, 4120.513, 4130.256, 4135.897, 4136.282, 4201.282, 4904.744, 4142.179, 4141.667, 0, 0, []
1649066939.617, 18, 0, 4132.692, 4130.385, 4134.872, 4137.051, 4138.462, 4132.051, 4124.744, 4130.641, 4137.308, 4135.128, 4198.077, 4904.231, 4137.436, 4142.692, 0, 0, []
1649066939.625, 19, 0, 4135.897, 4133.974, 4133.59, 4135.769, 4134.231, 4132.308, 4123.846, 4137.436, 4139.231, 4140.769, 4188.333, 4903.462, 4140.513, 4146.154, 0, 0, []
1649066939.6329, 20, 0, 4134.231, 4132.436, 4132.821, 4135.769, 4133.462, 4132.179, 4127.949, 4136.538, 4139.487, 4139.359, 4186.795, 4900.897, 4140.897, 4142.821, 0, 0, []
1649066939.6409, 21, 0, 4132.308, 4133.077, 4134.872, 4136.538, 4133.077, 4132.051, 4130.385, 4134.872, 4138.077, 4139.231, 4193.205, 4905, 4138.974, 4142.692, 0, 0, []
1649066939.6488, 22, 0, 4133.59, 4134.615, 4137.179, 4135.385, 4132.821, 4128.974, 4125.128, 4137.179, 4138.718, 4148.077, 4195.769, 4909.872, 4137.821, 4145.641, 0, 0, []
1649066939.6567, 23, 0, 4137.308, 4135.128, 4134.359, 4135.385, 4134.744, 4130.385, 4126.41, 4135.769, 4138.59, 4147.179, 4193.718, 4904.231, 4136.41, 4146.154, 0, 0, []
1649066939.6646, 24, 0, 4140.385, 4135.769, 4128.333, 4135.385, 4134.744, 4133.59, 4136.154, 4135.897, 4136.41, 4139.231, 4188.974, 4896.923, 4137.051, 4144.487, 0, 0, []
1649066939.6724, 25, 0, 4134.103, 4133.846, 4124.744, 4135.769, 4135.256, 4135.513, 4139.615, 4136.667, 4137.692, 4141.795, 4182.692, 4894.231, 4137.179, 4141.282, 0, 0, []
1649066939.6803, 26, 0, 4133.077, 4136.41, 4120.897, 4135.769, 4136.538, 4136.41, 4133.462, 4137.308, 4140.385, 4143.205, 4183.333, 4891.795, 4139.615, 4144.231, 0, 0, []
1649066939.6881, 27, 0, 4138.205, 4137.821, 4122.692, 4127.821, 4135.256, 4134.103, 4135.897, 4137.436, 4137.564, 4136.795, 4186.795, 4891.41, 4139.359, 4142.308, 0, 0, []
1649066939.696, 28, 0, 4134.744, 4133.59, 4126.154, 4125.513, 4135.641, 4132.692, 4139.615, 4135.513, 4135.256, 4136.923, 4182.436, 4895.256, 4138.462, 4135.769, 0, 0, []
1649066939.7039, 29, 0, 4130.769, 4131.667, 4127.051, 4133.205, 4134.872, 4127.949, 4130.385, 4136.154, 4137.436, 4139.359, 4182.308, 4900.897, 4140, 4139.744, 0, 0, []
1649066939.7119, 30, 0, 4132.051, 4131.667, 4134.359, 4133.333, 4132.051, 4124.103, 4122.308, 4137.564, 4136.923, 4136.41, 4191.026, 4906.667, 4133.462, 4140.897, 0, 0, []
1649066939.7198, 31, 0, 4132.436, 4130.897, 4141.026, 4129.872, 4131.538, 4126.538, 4120.769, 4133.846, 4136.282, 4137.179, 4192.308, 4909.744, 4129.103, 4137.308, 0, 0, []
1649066939.7278, 32, 0, 4130.513, 4128.333, 4145.128, 4135.128, 4135, 4125.385, 4121.667, 4131.282, 4136.667, 4138.718, 4188.59, 4910.128, 4131.538, 4138.846, 0, 0, []
1649066939.7356, 33, 0, 4131.026, 4130.641, 4146.282, 4138.846, 4135.513, 4121.41, 4123.205, 4134.872, 4135.513, 4138.205, 4195.256, 4910.769, 4133.462, 4140, 0, 0, []
1649066939.7436, 34, 0, 4134.231, 4133.718, 4141.667, 4135.256, 4133.59, 4123.718, 4121.923, 4136.795, 4136.026, 4141.026, 4204.615, 4910, 4136.154, 4140.641, 0, 0, []
1649066939.7515, 35, 0, 4137.949, 4132.949, 4142.564, 4135.897, 4135.385, 4127.179, 4123.462, 4134.872, 4138.333, 4140.641, 4200.385, 4908.205, 4135.769, 4141.282, 0, 0, []
1649066939.7595, 36, 0, 4140.128, 4135.256, 4142.436, 4137.436, 4136.538, 4129.103, 4130.385, 4134.103, 4138.59, 4138.077, 4196.026, 4906.923, 4138.462, 4145.513, 0, 0, []
1649066939.7674, 37, 0, 4135.256, 4131.026, 4135.385, 4135.897, 4134.744, 4130.128, 4127.179, 4134.103, 4135.897, 4143.846, 4201.538, 4906.282, 4140.128, 4145.256, 0, 0, []
1649066939.7753, 38, 0, 4132.692, 4126.795, 4135.256, 4135.897, 4135.641, 4129.487, 4123.59, 4134.231, 4134.359, 4151.026, 4199.103, 4906.282, 4136.923, 4138.333, 0, 0, []
1649066939.7832, 39, 0, 4133.718, 4130.256, 4136.282, 4136.026, 4136.538, 4129.231, 4126.923, 4135.769, 4135.897, 4149.103, 4185.385, 4903.333, 4135.256, 4137.308, 0, 0, []
1649066939.7912, 40, 0, 4129.872, 4127.949, 4135.641, 4136.41, 4133.59, 4129.487, 4124.872, 4135.256, 4138.205, 4142.051, 4185.128, 4903.333, 4131.026, 4136.667, 0, 0, []
1649066939.7991, 41, 0, 4129.359, 4128.333, 4135.128, 4136.154, 4132.308, 4131.026, 4125, 4133.846, 4137.051, 4138.974, 4194.615, 4904.744, 4130.513, 4138.846, 0, 0, []
1649066939.8069, 42, 0, 4132.564, 4128.974, 4136.026, 4135.769, 4134.615, 4130, 4132.436, 4134.487, 4135.641, 4138.205, 4196.026, 4902.692, 4133.718, 4141.026, 0, 0, []
1649066939.8147, 43, 0, 4131.923, 4126.923, 4139.103, 4136.154, 4135, 4128.077, 4135.513, 4134.744, 4136.538, 4138.205, 4190.513, 4901.538, 4133.462, 4136.282, 0, 0, []
1649066939.8225, 44, 0, 4132.308, 4133.462, 4138.718, 4135.513, 4133.846, 4130, 4128.718, 4134.103, 4137.821, 4138.59, 4189.231, 4902.051, 4136.154, 4137.308, 0, 0, []
1649066939.8304, 45, 0, 4131.41, 4134.231, 4136.154, 4134.744, 4133.718, 4130.256, 4126.795, 4134.487, 4137.949, 4137.564, 4186.923, 4902.692, 4136.282, 4140.256, 0, 0, []
1649066939.8382, 46, 0, 4131.923, 4128.974, 4131.154, 4136.41, 4134.487, 4132.179, 4129.744, 4136.282, 4137.308, 4137.179, 4184.231, 4902.564, 4135.256, 4140.641, 0, 0, []
1649066939.8461, 47, 0, 4133.846, 4127.949, 4131.538, 4136.923, 4135.513, 4133.718, 4129.744, 4137.564, 4135.897, 4135.897, 4185.256, 4899.744, 4135, 4139.103, 0, 0, []
1649066939.8538, 48, 0, 4132.564, 4127.692, 4134.103, 4135.256, 4136.282, 4130.897, 4130.385, 4137.436, 4134.872, 4136.923, 4185.385, 4897.821, 4131.538, 4139.231, 0, 0, []
1649066939.8617, 49, 0, 4134.744, 4129.615, 4130.641, 4135.128, 4135.128, 4129.872, 4131.538, 4137.179, 4136.282, 4139.487, 4186.41, 4897.179, 4132.949, 4142.692, 0, 0, []
1649066939.8695, 50, 0, 4134.487, 4130, 4133.462, 4134.487, 4135.513, 4129.103, 4136.667, 4137.436, 4137.692, 4143.333, 4189.487, 4897.051, 4133.846, 4140, 0, 0, []
1649066939.8774, 51, 0, 4131.795, 4131.026, 4134.615, 4133.205, 4136.026, 4130.769, 4136.538, 4137.308, 4137.692, 4151.795, 4186.923, 4897.949, 4135.128, 4140, 0, 0, []
1649066939.8852, 52, 0, 4132.564, 4133.333, 4130.256, 4132.692, 4133.718, 4132.564, 4126.923, 4137.436, 4137.051, 4152.692, 4186.154, 4902.308, 4137.051, 4141.282, 0, 0, []
1649066939.893, 53, 0, 4132.564, 4133.462, 4134.359, 4133.462, 4134.231, 4131.282, 4123.846, 4137.179, 4135.897, 4140.897, 4194.359, 4904.359, 4133.718, 4139.487, 0, 0, []
1649066939.9008, 54, 0, 4132.949, 4131.41, 4136.923, 4135.513, 4137.308, 4130.641, 4129.231, 4137.179, 4136.154, 4135, 4202.692, 4903.205, 4135, 4141.282, 0, 0, []
1649066939.9087, 55, 0, 4133.333, 4129.231, 4136.538, 4137.051, 4129.487, 4128.974, 4127.821, 4137.821, 4136.923, 4140.128, 4200.128, 4906.026, 4137.821, 4141.923, 0, 0, []
1649066939.9165, 56, 0, 4133.59, 4131.795, 4141.026, 4136.923, 4125.513, 4127.692, 4120.385, 4136.795, 4137.436, 4140.256, 4197.692, 4909.359, 4138.077, 4143.333, 0, 0, []
1649066939.9245, 57, 0, 4133.718, 4130.256, 4141.795, 4134.103, 4130, 4126.41, 4121.154, 4135.513, 4137.179, 4134.103, 4200.256, 4909.103, 4137.821, 4144.744, 0, 0, []
1649066939.9323, 58, 0, 4133.205, 4126.154, 4140.256, 4134.359, 4126.923, 4126.41, 4125, 4135.897, 4135.769, 4139.615, 4199.359, 4908.974, 4135.256, 4141.923, 0, 0, []
1649066939.9403, 59, 0, 4134.615, 4130.256, 4141.538, 4134.872, 4127.051, 4129.487, 4125.128, 4136.41, 4135.769, 4150.128, 4197.179, 4908.333, 4138.205, 4142.692, 0, 0, []
1649066939.9482, 60, 0, 4135.513, 4129.615, 4143.718, 4133.718, 4128.59, 4127.821, 4123.974, 4135.513, 4137.436, 4143.974, 4198.462, 4908.205, 4138.846, 4143.077, 0, 0, []
1649066939.9562, 61, 0, 4134.487, 4127.949, 4141.923, 4134.615, 4125, 4126.41, 4125.256, 4134.872, 4136.667, 4134.487, 4198.333, 4908.333, 4134.359, 4141.41, 0, 0, []
1649066939.9641, 62, 0, 4132.308, 4131.795, 4139.103, 4136.795, 4126.538, 4127.821, 4127.949, 4135, 4135.897, 4138.59, 4197.564, 4907.692, 4136.41, 4143.718, 0, 0, []
1649066939.9718, 63, 0, 4131.41, 4130, 4141.154, 4137.308, 4128.205, 4127.949, 4127.821, 4135.641, 4137.308, 4143.205, 4199.744, 4907.051, 4138.846, 4141.923, 0, 0, []
1649066939.9797, 64, 0, 4135.256, 4128.974, 4141.538, 4135.641, 4126.026, 4128.718, 4123.333, 4136.923, 4138.59, 4141.026, 4199.103, 4906.282, 4139.103, 4139.231, 0, 0, []
1649066939.9875, 65, 0, 4133.333, 4128.718, 4141.923, 4135.641, 4132.051, 4127.051, 4120.897, 4135.385, 4137.308, 4140.769, 4198.59, 4906.923, 4135.256, 4140.385, 0, 0, []
1649066939.9955, 66, 0, 4128.974, 4127.436, 4141.538, 4136.538, 4140.256, 4124.231, 4125.256, 4133.077, 4135.897, 4141.538, 4199.872, 4907.692, 4131.154, 4140.897, 0, 0, []
1649066940.0034, 67, 0, 4132.051, 4131.538, 4138.718, 4135.641, 4134.359, 4125.769, 4126.282, 4134.103, 4136.41, 4141.41, 4192.821, 4905.769, 4134.744, 4140.513, 0, 0, []
1649066940.0113, 68, 0, 4132.949, 4133.077, 4142.308, 4136.282, 4130.897, 4128.718, 4125.769, 4136.026, 4136.282, 4141.795, 4192.436, 4906.41, 4135.385, 4139.359, 0, 0, []
1649066940.0192, 69, 0, 4134.103, 4131.667, 4142.564, 4136.923, 4131.538, 4130, 4128.718, 4135.128, 4135.897, 4139.615, 4198.59, 4908.333, 4136.154, 4142.436, 0, 0, []
1649066940.0272, 70, 0, 4134.487, 4129.872, 4140.385, 4136.154, 4128.974, 4127.949, 4130, 4133.974, 4135.256, 4136.538, 4193.846, 4908.205, 4136.667, 4142.179, 0, 0, []
1649066940.0351, 71, 0, 4133.077, 4129.487, 4141.923, 4135.641, 4131.026, 4128.077, 4130.256, 4134.615, 4135.769, 4135.897, 4185.641, 4908.205, 4133.59, 4140.128, 0, 0, []
1649066940.0431, 72, 0, 4133.974, 4130, 4140.385, 4137.436, 4133.59, 4129.487, 4126.538, 4134.615, 4136.282, 4137.436, 4186.282, 4907.949, 4134.103, 4144.231, 0, 0, []
1649066940.0509, 73, 0, 4133.718, 4127.436, 4141.154, 4137.179, 4135.385, 4128.333, 4126.538, 4134.359, 4136.154, 4138.846, 4189.615, 4906.41, 4134.231, 4141.667, 0, 0, []
1649066940.0589, 74, 0, 4132.949, 4130, 4142.051, 4135.385, 4136.026, 4129.359, 4130.641, 4134.487, 4137.949, 4138.59, 4188.077, 4905.769, 4135.128, 4137.949, 0, 0, []
1649066940.0668, 75, 0, 4132.564, 4132.436, 4142.436, 4136.154, 4135.897, 4127.821, 4128.974, 4134.487, 4139.359, 4138.077, 4187.308, 4907.308, 4133.462, 4138.974, 0, 0, []
1649066940.0748, 76, 0, 4133.718, 4129.872, 4142.821, 4136.923, 4135.385, 4127.436, 4127.821, 4134.359, 4136.538, 4136.667, 4193.205, 4907.564, 4131.026, 4138.333, 0, 0, []
1649066940.0827, 77, 0, 4133.077, 4128.462, 4140.128, 4135.513, 4133.846, 4131.154, 4129.744, 4134.359, 4135, 4136.154, 4202.692, 4905.769, 4136.154, 4139.744, 0, 0, []
1649066940.0906, 78, 0, 4129.615, 4129.615, 4142.179, 4135.897, 4134.615, 4129.359, 4128.205, 4134.744, 4139.231, 4139.231, 4197.564, 4907.436, 4135.128, 4139.359, 0, 0, []
1649066940.0985, 79, 0, 4132.308, 4132.949, 4141.923, 4137.308, 4134.487, 4128.333, 4125.385, 4134.231, 4140.128, 4140.641, 4182.821, 4907.949, 4130.513, 4139.103, 0, 0, []
1649066940.1065, 80, 0, 4136.41, 4131.026, 4135.641, 4135.641, 4134.487, 4130.385, 4132.308, 4134.231, 4136.026, 4137.436, 4183.333, 4905.641, 4130.513, 4141.026, 0, 0, []
1649066940.1144, 81, 0, 4133.333, 4128.333, 4137.564, 4135.128, 4136.026, 4130.256, 4136.282, 4136.282, 4134.615, 4136.41, 4194.103, 4905.897, 4131.795, 4138.333, 0, 0, []
1649066940.1222, 82, 0, 4131.667, 4130.641, 4139.231, 4136.667, 4136.154, 4129.487, 4130, 4136.795, 4136.795, 4139.231, 4194.872, 4906.026, 4136.282, 4138.333, 0, 0, []
1649066940.13, 83, 0, 4133.205, 4127.821, 4135.897, 4136.538, 4135.897, 4129.744, 4132.564, 4135.256, 4137.949, 4138.846, 4190.128, 4906.795, 4136.282, 4139.359, 0, 0, []
1649066940.1378, 84, 0, 4133.718, 4127.821, 4136.923, 4136.282, 4136.154, 4131.282, 4137.308, 4135.256, 4137.308, 4137.308, 4188.974, 4909.615, 4134.615, 4137.692, 0, 0, []
1649066940.1457, 85, 0, 4130.897, 4130.128, 4138.718, 4137.179, 4134.872, 4130.256, 4131.154, 4136.154, 4136.795, 4138.077, 4187.949, 4909.744, 4137.051, 4138.974, 0, 0, []
1649066940.1535, 86, 0, 4130.128, 4127.821, 4137.821, 4137.436, 4134.231, 4129.231, 4127.564, 4136.154, 4135.897, 4138.333, 4185.128, 4906.026, 4136.026, 4139.359, 0, 0, []
1649066940.1614, 87, 0, 4135.897, 4129.872, 4134.487, 4135.641, 4135.897, 4131.154, 4131.923, 4136.154, 4135.897, 4139.231, 4186.667, 4904.231, 4136.282, 4139.615, 0, 0, []
1649066940.1691, 88, 0, 4134.359, 4129.487, 4136.538, 4136.41, 4136.923, 4130.256, 4130.128, 4135.513, 4136.795, 4140, 4188.718, 4907.051, 4133.846, 4136.667, 0, 0, []
1649066940.177, 89, 0, 4130.513, 4129.231, 4138.462, 4137.949, 4135.641, 4128.333, 4126.026, 4134.359, 4137.949, 4139.744, 4186.41, 4906.154, 4131.795, 4136.41, 0, 0, []
1649066940.1848, 90, 0, 4133.974, 4135.897, 4135, 4137.564, 4134.744, 4127.564, 4132.436, 4135, 4136.538, 4139.103, 4187.308, 4904.744, 4135.897, 4140.641, 0, 0, []
1649066940.1927, 91, 0, 4133.846, 4133.974, 4136.923, 4136.282, 4135.128, 4126.667, 4136.41, 4136.154, 4134.487, 4138.077, 4187.821, 4907.179, 4134.231, 4139.744, 0, 0, []
1649066940.2005, 92, 0, 4131.667, 4128.846, 4138.333, 4134.359, 4135.256, 4129.103, 4131.282, 4136.282, 4135.769, 4137.179, 4185.641, 4907.308, 4133.205, 4140, 0, 0, []
1649066940.2083, 93, 0, 4133.205, 4130.128, 4136.923, 4134.487, 4134.872, 4130.513, 4132.308, 4136.154, 4135.641, 4137.179, 4186.923, 4905.897, 4135.385, 4138.974, 0, 0, []
1649066940.2161, 94, 0, 4134.615, 4133.205, 4135.256, 4136.026, 4134.744, 4128.718, 4136.026, 4136.282, 4133.974, 4136.923, 4187.821, 4906.41, 4135.128, 4139.103, 0, 0, []
1649066940.2241, 95, 0, 4131.795, 4130.769, 4134.872, 4136.026, 4134.231, 4128.205, 4127.436, 4136.41, 4135.769, 4136.41, 4185.385, 4905.769, 4134.231, 4140.641, 0, 0, []
1649066940.232, 96, 0, 4129.615, 4128.205, 4138.59, 4135.513, 4133.974, 4129.103, 4125.769, 4136.282, 4138.846, 4136.923, 4188.718, 4904.359, 4132.436, 4139.231, 0, 0, []
1649066940.24, 97, 0, 4132.308, 4131.538, 4137.051, 4136.282, 4135.256, 4130.641, 4131.538, 4136.154, 4136.923, 4139.231, 4194.103, 4905.385, 4134.872, 4143.462, 0, 0, []
1649066940.2478, 98, 0, 4131.538, 4130.385, 4135.385, 4136.667, 4135.385, 4129.615, 4127.821, 4136.538, 4134.487, 4140.128, 4190, 4907.051, 4133.59, 4143.077, 0, 0, []
1649066940.2558, 99, 0, 4130.897, 4129.744, 4137.564, 4136.923, 4135.256, 4129.487, 4126.795, 4136.026, 4136.538, 4135.641, 4186.538, 4905.128, 4130.641, 4137.051, 0, 0, []
1649066940.2637, 100, 0, 4132.821, 4131.538, 4137.051, 4136.282, 4136.026, 4129.487, 4131.667, 4134.615, 4137.308, 4139.359, 4186.795, 4903.333, 4136.026, 4138.718, 0, 0, []
1649066940.2717, 101, 0, 4129.615, 4128.59, 4138.718, 4135.256, 4134.231, 4127.692, 4131.282, 4134.359, 4134.359, 4148.462, 4186.667, 4905.256, 4135.128, 4140, 0, 0, []
1649066940.2796, 102, 0, 4130.641, 4130.641, 4137.436, 4136.026, 4133.205, 4128.59, 4128.846, 4135.256, 4134.359, 4144.615, 4189.615, 4904.744, 4132.179, 4139.744, 0, 0, []
1649066940.2873, 103, 0, 4136.026, 4130.897, 4135.641, 4136.795, 4135.513, 4129.231, 4129.359, 4135.513, 4137.436, 4137.051, 4191.923, 4903.846, 4135.256, 4139.103, 0, 0, []
1649066940.2952, 104, 0, 4134.615, 4128.462, 4138.974, 4136.923, 4135.641, 4131.154, 4129.103, 4135.256, 4137.436, 4138.333, 4187.051, 4907.949, 4136.538, 4138.205, 0, 0, []
1649066940.303, 105, 0, 4131.795, 4131.026, 4137.949, 4136.282, 4133.333, 4132.564, 4125.256, 4135.385, 4136.538, 4140, 4184.744, 4907.436, 4134.103, 4140, 0, 0, []
1649066940.311, 106, 0, 4131.41, 4131.282, 4136.154, 4135.769, 4134.231, 4129.744, 4127.051, 4135.513, 4137.308, 4138.846, 4188.59, 4902.821, 4131.026, 4140, 0, 0, []
1649066940.3189, 107, 0, 4134.359, 4132.051, 4135.897, 4136.667, 4134.615, 4129.615, 4130.385, 4135.385, 4137.308, 4139.103, 4188.333, 4902.821, 4134.103, 4141.282, 0, 0, []
1649066940.3268, 108, 0, 4134.231, 4132.308, 4137.179, 4137.949, 4132.564, 4130.641, 4128.077, 4135.385, 4135.769, 4138.077, 4187.692, 4906.282, 4134.872, 4140.513, 0, 0, []
1649066940.3347, 109, 0, 4130.385, 4129.872, 4134.744, 4137.436, 4133.205, 4129.487, 4127.692, 4135.385, 4136.538, 4137.179, 4187.692, 4905.641, 4132.821, 4138.077, 0, 0, []
1649066940.3427, 110, 0, 4132.436, 4133.077, 4130.897, 4135.897, 4133.846, 4129.103, 4129.872, 4135.385, 4137.564, 4138.462, 4184.231, 4900.641, 4136.795, 4140.385, 0, 0, []
1649066940.3506, 111, 0, 4135.513, 4133.846, 4134.359, 4136.282, 4132.564, 4128.974, 4129.231, 4135.385, 4136.026, 4138.333, 4189.231, 4900.897, 4135.385, 4138.974, 0, 0, []
1649066940.3586, 112, 0, 4134.231, 4132.692, 4133.462, 4136.923, 4133.718, 4129.487, 4127.436, 4135.385, 4135.641, 4138.718, 4196.282, 4904.359, 4132.308, 4137.949, 0, 0, []
1649066940.3664, 113, 0, 4133.205, 4132.436, 4130.769, 4135.769, 4136.667, 4129.744, 4132.821, 4135.385, 4136.667, 4137.179, 4191.026, 4903.846, 4131.923, 4139.487, 0, 0, []
1649066940.3744, 114, 0, 4134.231, 4130.769, 4135.128, 4135.769, 4136.282, 4129.231, 4137.692, 4135.385, 4135.769, 4135.641, 4183.205, 4905.769, 4132.436, 4139.744, 0, 0, []
1649066940.3823, 115, 0, 4134.744, 4129.359, 4136.282, 4137.051, 4133.205, 4128.205, 4128.59, 4135.385, 4135.769, 4137.564, 4186.282, 4905.385, 4137.821, 4140.128, 0, 0, []
1649066940.3903, 116, 0, 4131.923, 4128.718, 4135.897, 4136.795, 4132.564, 4127.308, 4124.872, 4135.385, 4137.821, 4138.077, 4190.385, 4899.359, 4137.564, 4137.949, 0, 0, []
1649066940.3982, 117, 0, 4132.692, 4131.667, 4135.897, 4135.769, 4133.718, 4131.154, 4131.667, 4135.256, 4137.821, 4136.282, 4187.179, 4900, 4135.513, 4139.103, 0, 0, []
1649066940.4061, 118, 0, 4132.308, 4131.667, 4133.718, 4136.282, 4132.949, 4130, 4133.077, 4135.513, 4136.538, 4138.59, 4187.692, 4907.564, 4136.795, 4139.744, 0, 0, []
1649066940.414, 119, 0, 4131.154, 4129.744, 4135.385, 4136.41, 4132.564, 4127.436, 4130, 4136.026, 4136.538, 4141.154, 4187.436, 4907.821, 4132.821, 4137.692, 0, 0, []
1649066940.422, 120, 0, 4134.744, 4133.974, 4139.103, 4135.128, 4135.256, 4132.051, 4127.692, 4136.282, 4136.667, 4140.256, 4183.974, 4902.692, 4131.923, 4140.513, 0, 0, []
1649066940.4299, 121, 0, 4132.949, 4133.846, 4139.359, 4137.051, 4137.051, 4130, 4125.641, 4136.282, 4135.897, 4139.615, 4194.103, 4904.231, 4132.179, 4140.385, 0, 0, []
1649066940.4378, 122, 0, 4130.641, 4130.641, 4132.692, 4139.359, 4135.769, 4128.077, 4126.282, 4136.154, 4135.513, 4140.385, 4201.154, 4903.718, 4133.205, 4139.359, 0, 0, []
1649066940.4457, 123, 0, 4131.026, 4127.692, 4128.59, 4137.179, 4134.872, 4131.667, 4128.077, 4135.897, 4136.667, 4138.974, 4189.744, 4899.744, 4136.026, 4140.641, 0, 0, []
1649066940.4534, 124, 0, 4129.103, 4127.436, 4135.641, 4135.513, 4135.641, 4129.615, 4128.462, 4135.769, 4136.667, 4136.154, 4187.308, 4902.821, 4135.897, 4138.846, 0, 0, []
1649066940.4613, 125, 0, 4130.513, 4133.59, 4137.564, 4136.538, 4135.128, 4128.205, 4128.205, 4136.154, 4136.282, 4137.179, 4196.538, 4903.846, 4139.103, 4141.538, 0, 0, []
1649066940.4691, 126, 0, 4133.077, 4132.051, 4134.872, 4136.41, 4133.974, 4131.154, 4130.641, 4136.282, 4136.154, 4139.872, 4191.154, 4900.769, 4137.051, 4141.026, 0, 0, []
1649066940.477, 127, 0, 4133.718, 4129.231, 4132.051, 4135.385, 4135.128, 4132.821, 4130.897, 4136.154, 4136.026, 4137.308, 4183.718, 4901.667, 4134.103, 4136.538, 57, 0, []
1649066940.4848, 0, 0, 4132.436, 4136.538, 4129.359, 4135.513, 4136.282, 4131.154, 4133.718, 4136.154, 4136.667, 4138.462, 4188.718, 4904.359, 4137.692, 4139.103, 0, 0, []
1649066940.4926, 1, 0, 4130.769, 4135.641, 4134.359, 4135.641, 4135.641, 4129.103, 4136.795, 4136.154, 4137.564, 4145.897, 4187.821, 4903.462, 4134.103, 4139.872, 0, 0, []
1649066940.5004, 2, 0, 4133.718, 4131.282, 4135.513, 4134.872, 4135.513, 4129.487, 4131.667, 4136.154, 4136.282, 4145.897, 4185.769, 4902.564, 4131.026, 4138.462, 0, 0, []
1649066940.5083, 3, 0, 4132.949, 4135.128, 4133.974, 4134.872, 4135.256, 4130.513, 4132.564, 4136.154, 4134.359, 4136.667, 4190.128, 4901.667, 4132.564, 4137.949, 0, 0, []
1649066940.5161, 4, 0, 4129.359, 4139.231, 4135.897, 4136.026, 4134.615, 4131.41, 4135.897, 4136.154, 4134.231, 4135.385, 4189.615, 4899.103, 4132.436, 4140.641, 0, 0, []
1649066940.524, 5, 0, 4131.538, 4135.513, 4135.641, 4136.795, 4135.641, 4130.256, 4133.077, 4136.154, 4135.897, 4138.333, 4188.846, 4898.205, 4133.077, 4142.692, 0, 0, []
1649066940.5317, 6, 0, 4131.538, 4129.103, 4134.872, 4136.795, 4135.641, 4129.231, 4134.487, 4136.154, 4136.795, 4136.282, 4189.615, 4902.308, 4135.128, 4137.692, 0, 0, []
1649066940.5396, 7, 0, 4130.128, 4131.282, 4133.333, 4136.41, 4133.59, 4131.282, 4135, 4136.154, 4136.923, 4136.282, 4189.359, 4903.974, 4137.308, 4137.821, 0, 0, []
1649066940.5474, 8, 0, 4131.923, 4132.821, 4134.487, 4136.282, 4134.231, 4129.359, 4132.949, 4136.154, 4137.179, 4137.692, 4189.359, 4901.154, 4135.385, 4139.231, 0, 0, []
1649066940.5554, 9, 0, 4132.308, 4132.179, 4135.513, 4136.154, 4136.154, 4130.641, 4133.974, 4136.154, 4136.667, 4137.308, 4189.359, 4901.154, 4134.744, 4138.974, 0, 0, []
1649066940.5633, 10, 0, 4130.769, 4131.667, 4131.538, 4135.385, 4135.128, 4134.487, 4132.051, 4136.154, 4135.897, 4137.949, 4189.359, 4901.41, 4138.462, 4141.154, 0, 0, []
1649066940.5712, 11, 0, 4131.795, 4127.308, 4132.564, 4135.897, 4134.872, 4130.641, 4127.308, 4136.154, 4136.282, 4136.538, 4189.359, 4901.538, 4136.538, 4140.128, 0, 0, []
1649066940.5791, 12, 0, 4135.128, 4128.205, 4135.897, 4136.538, 4136.923, 4129.359, 4131.538, 4136.154, 4137.179, 4136.538, 4189.359, 4900.513, 4134.872, 4140.641, 0, 0, []
1649066940.5871, 13, 0, 4132.051, 4127.949, 4135, 4135.769, 4136.282, 4131.154, 4134.103, 4136.154, 4136.795, 4141.154, 4189.359, 4899.872, 4134.103, 4140.641, 0, 0, []
1649066940.595, 14, 0, 4127.436, 4128.974, 4134.103, 4135.769, 4135.256, 4132.179, 4128.974, 4136.154, 4136.026, 4142.436, 4189.359, 4902.436, 4133.205, 4140, 0, 0, []
1649066940.603, 15, 0, 4131.41, 4136.41, 4133.462, 4136.026, 4135, 4131.923, 4131.41, 4136.154, 4134.872, 4138.205, 4189.359, 4901.667, 4136.026, 4141.41, 0, 0, []
1649066940.6108, 16, 0, 4134.359, 4134.103, 4133.846, 4135.769, 4132.051, 4130.128, 4136.41, 4136.154, 4134.744, 4137.692, 4189.615, 4900.897, 4132.692, 4137.821, 0, 0, []
1649066940.6186, 17, 0, 4132.436, 4131.282, 4134.103, 4136.026, 4131.41, 4130.641, 4132.692, 4136.154, 4138.205, 4140, 4189.487, 4902.821, 4132.564, 4138.077, 0, 0, []
1649066940.6265, 18, 0, 4131.282, 4132.821, 4135, 4136.282, 4132.564, 4130, 4132.821, 4136.154, 4141.026, 4140.128, 4188.974, 4904.487, 4138.205, 4141.538, 0, 0, []
1649066940.6343, 19, 0, 4132.949, 4132.179, 4134.615, 4136.026, 4132.821, 4129.744, 4137.179, 4136.154, 4138.974, 4138.974, 4189.872, 4903.462, 4136.282, 4138.462, 0, 0, []
1649066940.6423, 20, 0, 4134.231, 4132.564, 4129.744, 4136.282, 4134.103, 4130.769, 4134.231, 4136.154, 4136.667, 4138.59, 4188.333, 4901.41, 4134.872, 4137.821, 0, 0, []
1649066940.6501, 21, 0, 4131.538, 4130.256, 4135.256, 4136.026, 4135.897, 4130.256, 4133.205, 4136.282, 4137.949, 4139.231, 4185.897, 4902.564, 4135.128, 4140.513, 0, 0, []
1649066940.6581, 22, 0, 4133.333, 4129.359, 4139.872, 4136.538, 4135.769, 4131.154, 4135.385, 4136.026, 4138.205, 4139.231, 4183.718, 4902.179, 4135.385, 4142.692, 0, 0, []
1649066940.666, 23, 0, 4133.846, 4131.282, 4133.974, 4136.667, 4135.513, 4130.641, 4132.564, 4136.026, 4136.538, 4137.051, 4182.308, 4899.615, 4134.872, 4142.436, 0, 0, []
1649066940.674, 24, 0, 4130.385, 4133.077, 4133.59, 4134.487, 4136.154, 4129.744, 4132.308, 4136.154, 4136.026, 4136.538, 4189.359, 4899.103, 4133.718, 4138.718, 0, 0, []
1649066940.6819, 25, 0, 4132.949, 4136.026, 4135.513, 4133.974, 4134.231, 4131.282, 4132.051, 4135.513, 4137.179, 4138.205, 4195.641, 4900.513, 4137.051, 4140.256, 0, 0, []
1649066940.6898, 26, 0, 4134.615, 4131.667, 4135.128, 4136.667, 4133.974, 4129.744, 4127.821, 4134.487, 4136.538, 4137.821, 4187.949, 4902.051, 4134.487, 4141.41, 0, 0, []
1649066940.6977, 27, 0, 4133.59, 4128.333, 4133.59, 4137.308, 4134.744, 4130.256, 4127.949, 4134.359, 4135.385, 4136.923, 4183.718, 4904.744, 4131.667, 4140.897, 0, 0, []
1649066940.7057, 28, 0, 4133.077, 4133.462, 4134.103, 4135.256, 4134.231, 4131.667, 4133.974, 4134.872, 4136.538, 4139.487, 4195.769, 4906.795, 4136.41, 4140, 0, 0, []
1649066940.7136, 29, 0, 4131.41, 4136.667, 4136.538, 4136.026, 4134.359, 4129.487, 4135.897, 4134.872, 4136.795, 4139.103, 4196.667, 4902.821, 4135.641, 4138.974, 0, 0, []
1649066940.7216, 30, 0, 4132.308, 4133.59, 4132.436, 4136.667, 4134.359, 4130, 4131.667, 4134.359, 4136.667, 4137.179, 4181.667, 4899.103, 4133.718, 4143.846, 0, 0, []
1649066940.7294, 31, 0, 4131.923, 4129.359, 4132.051, 4136.026, 4134.359, 4130.897, 4133.077, 4135, 4137.436, 4139.103, 4186.026, 4904.615, 4133.462, 4143.974, 0, 0, []
1649066940.7374, 32, 0, 4132.308, 4131.538, 4135.513, 4136.538, 4134.359, 4130.641, 4135.513, 4136.154, 4137.692, 4139.615, 4196.795, 4906.923, 4134.615, 4140.897, 0, 0, []
1649066940.7453, 33, 0, 4134.103, 4131.538, 4133.846, 4136.282, 4134.359, 4129.744, 4133.462, 4136.026, 4136.667, 4137.692, 4190, 4902.436, 4136.923, 4141.795, 0, 0, []
1649066940.7531, 34, 0, 4132.564, 4128.718, 4133.59, 4136.026, 4134.359, 4129.103, 4133.846, 4135.385, 4136.667, 4139.231, 4183.462, 4901.538, 4134.744, 4140.385, 0, 0, []
1649066940.761, 35, 0, 4131.282, 4132.308, 4133.462, 4136.795, 4134.359, 4130.128, 4135.385, 4134.872, 4137.564, 4140.385, 4187.564, 4902.564, 4136.795, 4140.769, 0, 0, []
1649066940.7687, 36, 0, 4131.795, 4130.513, 4133.974, 4136.538, 4134.487, 4128.846, 4134.231, 4135.256, 4136.41, 4137.308, 4187.179, 4902.692, 4136.026, 4140.513, 0, 0, []
1649066940.7766, 37, 0, 4133.846, 4127.949, 4134.487, 4136.154, 4134.872, 4130.256, 4131.667, 4135.897, 4135.641, 4138.205, 4185.128, 4902.308, 4130.385, 4137.436, 0, 0, []
1649066940.7844, 38, 0, 4133.718, 4130.897, 4134.744, 4135.769, 4133.974, 4133.333, 4132.051, 4135.256, 4136.026, 4140.385, 4188.077, 4900.513, 4132.436, 4137.308, 0, 0, []
1649066940.7923, 39, 0, 4132.308, 4129.103, 4134.231, 4134.615, 4133.718, 4131.923, 4134.872, 4134.615, 4136.154, 4138.462, 4187.308, 4901.795, 4136.154, 4138.205, 0, 0, []
1649066940.8001, 40, 0, 4136.923, 4130.769, 4129.744, 4134.359, 4136.154, 4130.897, 4133.718, 4136.538, 4137.308, 4138.077, 4185.897, 4902.821, 4136.282, 4141.538, 0, 0, []
1649066940.8079, 41, 0, 4136.41, 4135.256, 4131.923, 4135.897, 4132.308, 4130.641, 4131.923, 4138.077, 4138.462, 4138.59, 4187.949, 4902.179, 4133.974, 4141.154, 0, 0, []
1649066940.8157, 42, 0, 4131.923, 4132.949, 4134.231, 4137.179, 4127.564, 4130.769, 4135.897, 4136.282, 4137.308, 4136.538, 4187.564, 4903.846, 4134.359, 4137.949, 0, 0, []
1649066940.8236, 43, 0, 4132.949, 4130.256, 4129.359, 4136.667, 4132.692, 4130.769, 4134.359, 4134.744, 4136.026, 4138.205, 4186.282, 4903.718, 4137.308, 4140.897, 0, 0, []
1649066940.8314, 44, 0, 4133.974, 4128.077, 4129.359, 4135.769, 4138.333, 4130.256, 4127.436, 4135.385, 4137.179, 4140.769, 4185.256, 4902.179, 4135.256, 4141.795, 0, 0, []
1649066940.8393, 45, 0, 4134.744, 4129.744, 4132.051, 4136.154, 4136.154, 4131.538, 4127.564, 4135.513, 4137.949, 4137.436, 4185.769, 4900.256, 4135.513, 4140, 0, 0, []
1649066940.847, 46, 0, 4135.128, 4132.051, 4133.333, 4136.795, 4135.128, 4131.795, 4133.846, 4134.103, 4136.026, 4139.103, 4187.949, 4898.718, 4136.282, 4138.846, 0, 0, []
1649066940.855, 47, 0, 4132.949, 4131.795, 4132.436, 4136.538, 4136.41, 4129.872, 4136.026, 4132.692, 4134.359, 4144.359, 4184.487, 4899.103, 4136.41, 4138.974, 0, 0, []
1649066940.8629, 48, 0, 4132.821, 4131.795, 4129.744, 4136.667, 4135.256, 4128.077, 4130.385, 4133.333, 4135, 4141.154, 4185.641, 4901.154, 4138.59, 4141.667, 0, 0, []
1649066940.8709, 49, 0, 4130.641, 4129.615, 4132.308, 4137.308, 4135.769, 4129.615, 4124.359, 4135, 4136.538, 4137.308, 4196.923, 4901.282, 4134.487, 4139.103, 0, 0, []
1649066940.8788, 50, 0, 4128.974, 4133.59, 4135, 4136.154, 4136.667, 4133.077, 4129.231, 4136.282, 4137.051, 4140.128, 4197.179, 4900.897, 4134.231, 4140, 0, 0, []
1649066940.8866, 51, 0, 4130.513, 4135.513, 4134.103, 4135.385, 4135.897, 4131.923, 4137.179, 4136.282, 4136.923, 4139.103, 4185.385, 4905.513, 4137.308, 4142.692, 0, 0, []
1649066940.8945, 52, 0, 4132.821, 4130.385, 4133.718, 4136.795, 4136.154, 4131.282, 4134.872, 4136.154, 4137.308, 4136.026, 4183.462, 4906.154, 4134.359, 4140, 0, 0, []
1649066940.9025, 53, 0, 4133.974, 4131.795, 4130.256, 4136.41, 4136.282, 4133.077, 4129.103, 4136.282, 4136.923, 4137.821, 4187.564, 4901.795, 4135, 4138.205, 0, 0, []
1649066940.9104, 54, 0, 4132.436, 4132.692, 4131.154, 4135.897, 4136.154, 4132.436, 4132.436, 4136.154, 4134.744, 4137.821, 4184.744, 4903.205, 4134.744, 4138.333, 0, 0, []
1649066940.9182, 55, 0, 4135.128, 4132.949, 4135.897, 4136.282, 4136.154, 4132.821, 4135.513, 4136.41, 4134.487, 4136.923, 4183.462, 4903.846, 4135, 4143.205, 0, 0, []
1649066940.926, 56, 0, 4135.769, 4133.718, 4136.282, 4135.897, 4136.154, 4131.667, 4130.385, 4135.769, 4137.692, 4137.179, 4186.026, 4900.513, 4137.692, 4144.231, 0, 0, []
1649066940.9338, 57, 0, 4129.744, 4133.077, 4134.615, 4136.026, 4136.154, 4130.128, 4126.282, 4134.487, 4138.59, 4136.667, 4185.641, 4900.513, 4135.769, 4137.308, 0, 0, []
1649066940.9418, 58, 0, 4129.744, 4131.667, 4132.308, 4135.897, 4136.154, 4131.538, 4130.641, 4134.744, 4137.051, 4137.051, 4185.513, 4901.538, 4136.667, 4136.154, 0, 0, []
1649066940.9497, 59, 0, 4133.718, 4126.282, 4133.846, 4135.513, 4136.154, 4129.872, 4136.154, 4135.513, 4136.026, 4136.923, 4185, 4901.41, 4136.667, 4137.821, 0, 0, []
1649066940.9577, 60, 0, 4134.872, 4128.205, 4133.077, 4135.769, 4136.154, 4131.41, 4133.333, 4135.385, 4136.154, 4136.795, 4184.744, 4903.333, 4134.487, 4140, 0, 0, []
1649066940.9655, 61, 0, 4132.179, 4132.949, 4130.128, 4136.667, 4136.154, 4132.308, 4130.769, 4135.256, 4136.795, 4137.179, 4185.769, 4901.923, 4134.615, 4140.897, 0, 0, []
1649066940.9735, 62, 0, 4132.436, 4132.179, 4132.692, 4136.154, 4136.154, 4129.231, 4134.744, 4136.154, 4136.026, 4136.667, 4185.385, 4900.385, 4133.333, 4139.487, 0, 0, []
1649066940.9814, 63, 0, 4136.795, 4132.949, 4133.077, 4134.872, 4136.154, 4130.128, 4135.513, 4136.41, 4135.513, 4136.667, 4183.718, 4900.769, 4134.487, 4141.538, 0, 0, []
1649066940.9894, 64, 0, 4134.487, 4131.154, 4132.692, 4137.051, 4136.154, 4130.769, 4132.821, 4136.154, 4137.179, 4138.462, 4187.692, 4902.179, 4132.564, 4140, 0, 0, []
1649066940.9973, 65, 0, 4131.923, 4131.795, 4132.436, 4138.59, 4136.154, 4130.128, 4131.41, 4136.282, 4137.051, 4138.333, 4191.026, 4901.538, 4133.077, 4137.949, 0, 0, []
1649066941.0052, 66, 0, 4134.359, 4132.564, 4131.795, 4136.154, 4136.154, 4130.385, 4133.205, 4136.026, 4136.41, 4137.821, 4186.795, 4897.821, 4137.051, 4139.744, 0, 0, []
1649066941.0131, 67, 0, 4132.436, 4129.231, 4135, 4135.385, 4136.154, 4130, 4134.872, 4134.615, 4138.333, 4138.077, 4184.231, 4899.103, 4131.154, 4137.692, 0, 0, []
1649066941.0211, 68, 0, 4131.282, 4129.359, 4133.333, 4137.179, 4136.154, 4130.256, 4133.077, 4134.487, 4138.462, 4138.333, 4186.667, 4904.231, 4130.641, 4138.974, 0, 0, []
1649066941.029, 69, 0, 4132.692, 4127.564, 4130.513, 4136.795, 4136.154, 4128.462, 4135.513, 4135.897, 4136.154, 4138.077, 4188.462, 4906.282, 4136.667, 4140.513, 0, 0, []
1649066941.037, 70, 0, 4132.692, 4129.359, 4134.872, 4135.385, 4136.154, 4128.333, 4137.308, 4136.41, 4135.641, 4137.436, 4185, 4903.333, 4135.641, 4138.974, 0, 0, []
1649066941.0448, 71, 0, 4132.051, 4135.769, 4135.769, 4135.769, 4136.154, 4130.513, 4131.667, 4136.154, 4136.282, 4138.462, 4186.026, 4899.487, 4133.59, 4140.128, 0, 0, []
1649066941.0526, 72, 0, 4130.385, 4132.821, 4133.974, 4135.641, 4136.154, 4130.128, 4131.538, 4136.282, 4136.154, 4139.615, 4193.205, 4899.872, 4133.59, 4139.231, 0, 0, []
1649066941.0605, 73, 0, 4131.026, 4130.513, 4133.077, 4134.744, 4136.154, 4129.103, 4135, 4136.282, 4137.179, 4137.564, 4191.923, 4900.769, 4137.308, 4140.256, 0, 0, []
1649066941.0683, 74, 0, 4133.333, 4133.59, 4135.769, 4135.128, 4136.154, 4128.974, 4131.667, 4136.41, 4136.795, 4135.128, 4185.897, 4901.282, 4137.051, 4139.359, 0, 0, []
1649066941.0762, 75, 0, 4132.692, 4136.026, 4138.205, 4135.256, 4136.154, 4130.128, 4133.333, 4136.154, 4135.128, 4136.795, 4185.513, 4900, 4132.308, 4137.949, 0, 0, []
1649066941.0839, 76, 0, 4131.154, 4136.41, 4135.513, 4135, 4136.154, 4129.231, 4132.692, 4135.256, 4136.538, 4138.205, 4187.179, 4901.795, 4133.205, 4140.513, 0, 0, []
1649066941.0918, 77, 0, 4132.051, 4132.821, 4134.615, 4137.051, 4136.154, 4128.718, 4125.897, 4134.487, 4137.692, 4135.641, 4192.949, 4905.641, 4135.385, 4138.718, 0, 0, []
1649066941.0996, 78, 0, 4135.128, 4132.308, 4131.154, 4138.462, 4136.154, 4132.308, 4129.231, 4133.974, 4136.41, 4135.641, 4195.385, 4902.692, 4137.821, 4138.974, 0, 0, []
1649066941.1075, 79, 0, 4132.308, 4133.974, 4129.103, 4136.026, 4136.154, 4130.641, 4131.667, 4135.128, 4136.538, 4138.718, 4189.487, 4900.256, 4135.128, 4140.128, 0, 0, []
1649066941.1153, 80, 0, 4130.385, 4136.026, 4134.615, 4135.385, 4136.154, 4129.359, 4128.077, 4136.923, 4138.59, 4139.615, 4185.385, 4901.667, 4131.154, 4140.769, 0, 0, []
1649066941.1231, 81, 0, 4132.692, 4134.615, 4137.692, 4136.667, 4136.154, 4132.179, 4130.385, 4137.436, 4137.436, 4137.949, 4186.41, 4899.872, 4134.231, 4142.308, 0, 0, []
1649066941.1309, 82, 0, 4130, 4128.462, 4135, 4136.923, 4136.154, 4130, 4132.949, 4137.179, 4134.615, 4137.436, 4191.026, 4901.154, 4136.154, 4138.59, 0, 0, []
1649066941.1388, 83, 0, 4130.128, 4131.41, 4129.744, 4136.538, 4136.538, 4127.949, 4131.41, 4137.179, 4135.513, 4136.538, 4197.051, 4903.333, 4138.077, 4139.231, 0, 0, []
1649066941.1466, 84, 0, 4133.205, 4133.846, 4130.769, 4135.385, 4136.026, 4130.641, 4133.718, 4136.795, 4135.897, 4136.923, 4191.538, 4899.744, 4136.41, 4141.282, 0, 0, []
1649066941.1545, 85, 0, 4131.923, 4130, 4135.513, 4135.256, 4135.641, 4132.692, 4131.923, 4136.154, 4134.103, 4139.872, 4181.923, 4898.846, 4132.692, 4139.615, 0, 0, []
1649066941.1622, 86, 0, 4130.385, 4130.128, 4134.872, 4136.667, 4137.692, 4130.641, 4127.692, 4135.769, 4135.256, 4140.641, 4185.769, 4903.205, 4136.41, 4139.615, 0, 0, []
1649066941.1702, 87, 0, 4129.487, 4128.333, 4134.744, 4136.923, 4134.615, 4127.821, 4136.923, 4134.744, 4137.564, 4138.333, 4188.077, 4904.103, 4137.949, 4137.821, 0, 0, []
1649066941.1781, 88, 0, 4131.282, 4127.436, 4132.436, 4136.538, 4132.308, 4131.538, 4139.103, 4133.974, 4136.667, 4137.051, 4183.846, 4901.667, 4137.821, 4139.615, 0, 0, []
1649066941.1861, 89, 0, 4133.974, 4130.385, 4130.641, 4136.154, 4134.359, 4133.462, 4127.564, 4134.744, 4136.282, 4137.179, 4185.769, 4902.051, 4137.564, 4143.077, 0, 0, []
1649066941.194, 90, 0, 4133.333, 4132.692, 4137.051, 4136.41, 4134.103, 4129.615, 4126.923, 4136.026, 4137.436, 4138.333, 4185.385, 4903.077, 4134.231, 4140.256, 0, 0, []
1649066941.2017, 91, 0, 4132.179, 4129.872, 4139.359, 4136.795, 4134.103, 4128.205, 4133.59, 4136.667, 4138.205, 4141.795, 4185.128, 4900.897, 4134.103, 4138.462, 0, 0, []
1649066941.2096, 92, 0, 4131.282, 4125.385, 4134.487, 4137.821, 4135.385, 4129.231, 4135.769, 4136.41, 4138.718, 4142.949, 4187.564, 4902.051, 4131.795, 4138.59, 0, 0, []
1649066941.2174, 93, 0, 4132.179, 4129.744, 4131.026, 4136.538, 4131.923, 4130.385, 4133.205, 4136.026, 4136.923, 4138.333, 4187.436, 4902.821, 4132.436, 4139.615, 0, 0, []
1649066941.2253, 94, 0, 4132.179, 4131.667, 4133.846, 4136.026, 4126.154, 4129.103, 4128.205, 4136.282, 4135, 4138.462, 4186.795, 4898.718, 4135.897, 4140.897, 0, 0, []
1649066941.2331, 95, 0, 4130.128, 4127.436, 4135, 4137.308, 4130.128, 4130, 4128.846, 4136.667, 4136.41, 4142.564, 4186.282, 4898.59, 4134.872, 4139.231, 0, 0, []
1649066941.2409, 96, 0, 4132.564, 4132.179, 4129.487, 4135.385, 4137.179, 4131.795, 4131.41, 4136.026, 4137.179, 4139.872, 4185.897, 4902.179, 4138.462, 4139.872, 0, 0, []
1649066941.2487, 97, 0, 4133.077, 4135.897, 4132.692, 4134.744, 4137.308, 4128.333, 4127.949, 4134.744, 4134.487, 4136.282, 4185.385, 4901.667, 4137.051, 4138.205, 0, 0, []
1649066941.2566, 98, 0, 4132.308, 4133.077, 4138.333, 4136.538, 4135.385, 4128.333, 4128.59, 4135.128, 4134.231, 4139.231, 4184.487, 4898.846, 4132.051, 4137.821, 0, 0, []
1649066941.2644, 99, 0, 4132.436, 4130, 4133.846, 4136.538, 4135.128, 4130.385, 4130.513, 4136.282, 4136.026, 4138.59, 4185.513, 4898.846, 4134.231, 4139.615, 0, 0, []
1649066941.2724, 100, 0, 4131.538, 4129.872, 4131.282, 4135.641, 4136.667, 4128.59, 4129.359, 4136.282, 4135.513, 4135.513, 4188.077, 4901.026, 4135.128, 4138.205, 0, 0, []
1649066941.2802, 101, 0, 4132.436, 4132.051, 4133.333, 4135.897, 4135.641, 4128.077, 4129.359, 4136.026, 4135.128, 4138.718, 4188.462, 4900.513, 4136.282, 4140.769, 0, 0, []
1649066941.2882, 102, 0, 4131.795, 4128.59, 4135, 4136.795, 4135, 4128.333, 4127.308, 4136.282, 4134.615, 4140.513, 4185.641, 4899.744, 4133.974, 4140.641, 0, 0, []
1649066941.2961, 103, 0, 4132.436, 4128.205, 4132.692, 4136.538, 4134.872, 4129.103, 4126.667, 4136.282, 4133.59, 4138.846, 4184.487, 4900.385, 4131.41, 4139.359, 0, 0, []
1649066941.3041, 104, 0, 4132.821, 4132.821, 4128.59, 4135.769, 4134.103, 4131.282, 4129.231, 4136.154, 4135.641, 4139.359, 4185.256, 4902.821, 4135.769, 4141.026, 0, 0, []
1649066941.312, 105, 0, 4130.769, 4131.667, 4133.462, 4135.897, 4134.487, 4131.667, 4129.359, 4136.154, 4138.077, 4139.615, 4185, 4904.872, 4136.667, 4139.103, 0, 0, []
1649066941.3199, 106, 0, 4131.538, 4134.487, 4136.923, 4136.795, 4134.615, 4129.487, 4128.846, 4136.154, 4138.205, 4139.359, 4184.487, 4903.462, 4136.154, 4138.462, 0, 0, []
1649066941.3278, 107, 0, 4132.821, 4136.026, 4134.487, 4135.897, 4134.231, 4129.231, 4132.692, 4136.154, 4138.205, 4139.359, 4185.385, 4902.949, 4135.385, 4138.846, 0, 0, []
1649066941.3358, 108, 0, 4133.59, 4133.846, 4133.974, 4134.872, 4134.615, 4133.333, 4132.308, 4136.154, 4137.179, 4139.359, 4185, 4902.179, 4134.615, 4141.282, 0, 0, []
1649066941.3437, 109, 0, 4133.077, 4135.513, 4135.513, 4136.538, 4136.026, 4133.846, 4130.385, 4136.154, 4136.795, 4139.359, 4183.846, 4901.41, 4135.385, 4143.333, 0, 0, []
1649066941.3517, 110, 0, 4131.154, 4134.231, 4135.513, 4138.718, 4136.154, 4129.359, 4136.795, 4136.154, 4138.077, 4139.359, 4187.308, 4904.231, 4132.821, 4138.59, 0, 0, []
1649066941.3595, 111, 0, 4133.462, 4133.846, 4130.385, 4137.692, 4134.872, 4129.615, 4134.744, 4136.154, 4138.205, 4139.359, 4189.231, 4904.359, 4135.897, 4136.538, 0, 0, []
1649066941.3673, 112, 0, 4134.487, 4134.103, 4132.692, 4135.256, 4134.487, 4130.641, 4125.128, 4136.154, 4136.538, 4139.359, 4186.538, 4903.205, 4137.179, 4138.333, 0, 0, []
1649066941.3752, 113, 0, 4131.282, 4134.231, 4135.897, 4135.769, 4134.744, 4130.769, 4126.795, 4136.154, 4136.154, 4139.359, 4186.026, 4903.333, 4132.308, 4140.256, 0, 0, []
1649066941.383, 114, 0, 4131.154, 4136.026, 4129.744, 4137.051, 4134.487, 4131.667, 4130.256, 4136.154, 4137.051, 4139.359, 4187.821, 4903.59, 4133.974, 4142.051, 0, 0, []
1649066941.3909, 115, 0, 4132.051, 4132.564, 4132.436, 4136.538, 4134.359, 4129.359, 4129.359, 4136.154, 4136.795, 4139.359, 4188.205, 4905, 4134.359, 4138.333, 0, 0, []
1649066941.3987, 116, 0, 4133.333, 4131.795, 4137.436, 4135.641, 4134.487, 4129.744, 4128.205, 4136.154, 4136.667, 4139.359, 4187.308, 4902.692, 4133.462, 4137.692, 0, 0, []
1649066941.4065, 117, 0, 4132.692, 4133.333, 4136.282, 4135.769, 4134.487, 4129.359, 4126.538, 4136.154, 4136.667, 4139.359, 4186.538, 4899.615, 4133.205, 4139.744, 0, 0, []
1649066941.4143, 118, 0, 4131.026, 4134.231, 4134.872, 4135.641, 4134.487, 4128.333, 4128.59, 4136.154, 4136.41, 4139.359, 4186.667, 4903.205, 4133.59, 4138.846, 0, 0, []
1649066941.4222, 119, 0, 4132.692, 4132.436, 4133.205, 4135.128, 4134.487, 4130.769, 4131.667, 4136.154, 4136.795, 4139.359, 4187.436, 4903.205, 4136.795, 4140.641, 0, 0, []
1649066941.43, 120, 0, 4132.821, 4128.974, 4133.59, 4136.026, 4134.487, 4130.769, 4129.359, 4136.154, 4138.59, 4139.231, 4185.641, 4899.231, 4134.744, 4140.128, 0, 0, []
1649066941.4379, 121, 0, 4132.436, 4132.179, 4133.077, 4135.897, 4134.487, 4131.026, 4127.436, 4136.154, 4138.718, 4139.103, 4184.359, 4900.385, 4135, 4139.744, 0, 0, []
1649066941.4456, 122, 0, 4131.795, 4132.564, 4131.923, 4134.872, 4134.487, 4130.513, 4128.974, 4136.154, 4137.051, 4140.256, 4186.282, 4902.692, 4136.41, 4139.615, 0, 0, []
1649066941.4535, 123, 0, 4130.256, 4128.974, 4131.667, 4135.256, 4134.487, 4129.744, 4128.59, 4136.154, 4136.923, 4138.974, 4186.41, 4900.641, 4133.59, 4137.436, 0, 0, []
1649066941.4613, 124, 0, 4132.436, 4133.59, 4131.282, 4136.538, 4134.487, 4131.795, 4126.154, 4136.154, 4137.821, 4138.462, 4185.897, 4900.513, 4137.051, 4139.615, 0, 0, []
1649066941.4693, 125, 0, 4132.821, 4134.103, 4132.821, 4136.41, 4134.487, 4131.154, 4127.692, 4136.154, 4138.333, 4143.205, 4186.154, 4905, 4135.769, 4139.487, 0, 0, []
1649066941.4772, 126, 0, 4133.846, 4131.154, 4132.308, 4136.026, 4134.487, 4129.744, 4128.077, 4136.154, 4137.308, 4142.692, 4186.154, 4906.282, 4132.179, 4140.385, 0, 0, []
1649066941.4851, 127, 0, 4133.59, 4131.538, 4132.564, 4135.641, 4134.487, 4130.128, 4127.692, 4136.282, 4135.513, 4136.41, 4186.154, 4903.077, 4136.154, 4141.538, 57, 0, []
1649066941.493, 0, 0, 4130.256, 4131.026, 4135.513, 4135.513, 4134.487, 4131.41, 4130.256, 4136.154, 4135.897, 4135.641, 4186.154, 4901.282, 4136.282, 4138.333, 0, 0, []
1649066941.501, 1, 0, 4131.154, 4133.462, 4133.333, 4135.897, 4134.487, 4130.513, 4131.026, 4135.897, 4138.462, 4138.205, 4186.026, 4902.179, 4134.103, 4138.718, 0, 0, []
1649066941.5089, 2, 0, 4132.949, 4131.538, 4133.974, 4135.769, 4134.487, 4128.59, 4133.974, 4136.538, 4138.718, 4137.051, 4186.026, 4903.077, 4134.231, 4138.205, 0, 0, []
1649066941.5167, 3, 0, 4133.205, 4130, 4135.897, 4135.769, 4134.487, 4130.897, 4132.821, 4135.897, 4137.179, 4137.564, 4186.154, 4900.897, 4135.513, 4139.487, 0, 0, []
1649066941.5245, 4, 0, 4132.051, 4135, 4131.795, 4135.897, 4134.487, 4130, 4126.795, 4134.872, 4138.205, 4139.359, 4185.897, 4900.256, 4134.359, 4141.154, 0, 0, []
1649066941.5323, 5, 0, 4131.282, 4133.59, 4132.692, 4135.641, 4134.487, 4127.949, 4127.692, 4136.282, 4138.077, 4137.179, 4186.026, 4903.846, 4133.718, 4138.333, 0, 0, []
1649066941.5402, 6, 0, 4133.59, 4131.026, 4136.154, 4135.256, 4134.487, 4130.256, 4131.282, 4137.179, 4137.051, 4136.154, 4186.923, 4904.103, 4136.923, 4139.615, 0, 0, []
1649066941.548, 7, 0, 4133.205, 4131.795, 4135.897, 4136.026, 4134.359, 4129.359, 4134.615, 4136.026, 4137.692, 4136.41, 4187.051, 4901.282, 4133.462, 4139.615, 0, 0, []
1649066941.556, 8, 0, 4133.846, 4134.487, 4132.308, 4136.795, 4134.487, 4129.103, 4134.231, 4136.154, 4137.308, 4136.282, 4186.282, 4901.026, 4133.462, 4138.59, 0, 0, []
1649066941.5638, 9, 0, 4135.513, 4133.974, 4129.359, 4135.128, 4134.615, 4130.256, 4130.897, 4136.538, 4136.026, 4136.282, 4186.026, 4900.385, 4137.821, 4139.615, 0, 0, []
1649066941.5718, 10, 0, 4132.179, 4133.205, 4134.615, 4135.128, 4134.103, 4129.103, 4127.949, 4135.128, 4136.795, 4135.897, 4186.282, 4899.744, 4134.487, 4138.846, 0, 0, []
1649066941.5797, 11, 0, 4130.128, 4133.205, 4136.538, 4137.564, 4135, 4130, 4127.949, 4134.615, 4137.949, 4136.154, 4186.154, 4901.026, 4135.256, 4141.538, 0, 0, []
1649066941.5877, 12, 0, 4130.385, 4127.564, 4134.359, 4138.333, 4137.179, 4129.231, 4135.641, 4135.256, 4135.769, 4136.923, 4186.282, 4903.59, 4137.179, 4139.744, 0, 0, []
1649066941.5956, 13, 0, 4131.41, 4130.385, 4134.103, 4135.897, 4137.692, 4126.795, 4139.872, 4135, 4135, 4135.128, 4186.282, 4902.821, 4134.231, 4136.026, 0, 0, []
1649066941.6035, 14, 0, 4132.821, 4137.179, 4134.231, 4134.615, 4136.282, 4129.103, 4130.513, 4135, 4136.795, 4136.923, 4186.026, 4902.308, 4135.641, 4139.744, 0, 0, []
1649066941.6114, 15, 0, 4131.41, 4133.846, 4133.59, 4135.897, 4136.026, 4131.41, 4121.154, 4135, 4136.667, 4141.41, 4186.667, 4903.974, 4136.282, 4139.231, 0, 0, []
1649066941.6194, 16, 0, 4131.282, 4131.667, 4131.154, 4135.641, 4137.051, 4129.103, 4127.692, 4135, 4136.026, 4141.026, 4187.308, 4903.462, 4135.897, 4136.795, 0, 0, []
1649066941.6273, 17, 0, 4130, 4131.154, 4132.436, 4135.385, 4135.897, 4126.667, 4131.667, 4135, 4136.41, 4139.231, 4186.923, 4902.564, 4133.974, 4137.436, 0, 0, []
1649066941.6353, 18, 0, 4130.128, 4132.308, 4134.103, 4136.026, 4134.231, 4130.385, 4125.513, 4135, 4136.667, 4138.974, 4186.41, 4901.923, 4131.282, 4140.128, 0, 0, []
1649066941.6431, 19, 0, 4133.59, 4131.538, 4132.692, 4136.282, 4135.256, 4132.564, 4125.641, 4135, 4135.513, 4137.821, 4186.538, 4900.641, 4134.359, 4141.923, 0, 0, []
1649066941.6511, 20, 0, 4132.821, 4128.462, 4133.718, 4136.538, 4136.154, 4130, 4129.103, 4135, 4134.744, 4137.051, 4186.282, 4900.641, 4136.154, 4138.462, 0, 0, []
1649066941.659, 21, 0, 4131.667, 4133.846, 4131.538, 4135.513, 4133.974, 4131.154, 4128.077, 4135, 4137.308, 4136.923, 4186.026, 4902.436, 4136.667, 4139.615, 0, 0, []
1649066941.667, 22, 0, 4131.795, 4133.077, 4129.615, 4134.872, 4132.436, 4130.641, 4133.846, 4134.872, 4138.974, 4136.026, 4186.282, 4903.462, 4134.359, 4141.667, 0, 0, []
1649066941.6749, 23, 0, 4132.436, 4127.051, 4133.718, 4136.154, 4134.487, 4130.513, 4141.41, 4135.256, 4137.179, 4137.436, 4186.282, 4903.846, 4132.821, 4138.974, 0, 0, []
1649066941.6826, 24, 0, 4133.846, 4130, 4133.974, 4136.667, 4135.385, 4133.077, 4130.513, 4135, 4135.385, 4139.615, 4186.026, 4899.872, 4137.179, 4137.692, 0, 0, []
1649066941.6905, 25, 0, 4132.564, 4129.103, 4131.795, 4136.154, 4134.744, 4130.385, 4121.795, 4134.744, 4136.154, 4138.462, 4186.41, 4898.718, 4134.359, 4138.333, 0, 0, []
1649066941.6983, 26, 0, 4132.436, 4128.333, 4133.462, 4135.385, 4135.513, 4130.256, 4129.872, 4136.282, 4137.436, 4138.59, 4186.282, 4902.436, 4133.59, 4141.667, 0, 0, []
1649066941.7062, 27, 0, 4132.692, 4132.564, 4135.256, 4135.128, 4135.513, 4130.385, 4131.923, 4137.564, 4136.923, 4139.872, 4184.872, 4900.385, 4137.436, 4141.795, 0, 0, []
1649066941.714, 28, 0, 4130.769, 4133.846, 4134.487, 4135.256, 4134.487, 4128.974, 4128.59, 4136.795, 4136.923, 4138.59, 4184.615, 4898.718, 4136.154, 4139.359, 0, 0, []
1649066941.7218, 29, 0, 4130.513, 4133.077, 4132.308, 4135.256, 4135, 4129.744, 4127.821, 4136.026, 4138.59, 4137.179, 4185.513, 4901.282, 4135.641, 4141.795, 0, 0, []
1649066941.7296, 30, 0, 4132.179, 4132.436, 4135.897, 4135, 4135.385, 4130.128, 4128.718, 4136.41, 4138.462, 4137.564, 4185, 4900.256, 4132.949, 4140.513, 0, 0, []
1649066941.7375, 31, 0, 4134.744, 4132.179, 4134.359, 4135.641, 4135.128, 4131.538, 4128.974, 4136.41, 4136.154, 4138.077, 4184.359, 4897.949, 4132.179, 4136.538, 0, 0, []
1649066941.7453, 32, 0, 4132.051, 4129.103, 4130.385, 4136.667, 4136.282, 4132.051, 4132.308, 4136.282, 4134.744, 4138.205, 4185.256, 4902.179, 4134.487, 4135.128, 0, 0, []
1649066941.7532, 33, 0, 4128.59, 4129.487, 4135.385, 4136.667, 4136.41, 4130.513, 4135.128, 4136.282, 4135, 4137.692, 4185.769, 4904.103, 4133.462, 4137.179, 0, 0, []
1649066941.7609, 34, 0, 4132.436, 4133.205, 4134.231, 4135.897, 4135.256, 4130.385, 4130.513, 4136.154, 4135.385, 4137.949, 4184.872, 4899.744, 4135.513, 4142.564, 0, 0, []
1649066941.7689, 35, 0, 4133.846, 4128.974, 4132.821, 4135.769, 4135.385, 4132.308, 4126.667, 4136.667, 4136.282, 4138.718, 4185.769, 4902.949, 4136.282, 4139.103, 0, 0, []
1649066941.7768, 36, 0, 4134.487, 4128.718, 4135.256, 4136.795, 4135.385, 4133.59, 4127.949, 4136.026, 4137.179, 4137.564, 4187.564, 4904.615, 4134.359, 4136.923, 0, 0, []
1649066941.7848, 37, 0, 4135.513, 4131.026, 4133.718, 4135.769, 4134.231, 4130, 4132.821, 4135, 4136.026, 4137.821, 4189.231, 4903.077, 4133.718, 4141.154, 0, 0, []
1649066941.7927, 38, 0, 4131.795, 4129.872, 4134.872, 4135.256, 4134.744, 4129.103, 4135.897, 4135.641, 4135, 4140.897, 4188.205, 4905, 4134.744, 4140.641, 0, 0, []
1649066941.8006, 39, 0, 4131.41, 4134.359, 4133.974, 4136.667, 4135.513, 4132.179, 4131.41, 4135.641, 4135.769, 4139.872, 4184.744, 4902.051, 4138.59, 4141.795, 0, 0, []
1649066941.8085, 40, 0, 4134.231, 4133.974, 4133.205, 4135.513, 4134.744, 4130.385, 4130.641, 4134.615, 4135.513, 4135.641, 4187.564, 4900.256, 4135.128, 4140.513, 0, 0, []
1649066941.8165, 41, 0, 4135, 4129.872, 4136.667, 4135.128, 4135.385, 4129.872, 4134.615, 4136.026, 4133.974, 4136.154, 4192.051, 4902.436, 4132.821, 4137.436, 0, 0, []
1649066941.8244, 42, 0, 4132.692, 4130.513, 4137.564, 4137.308, 4136.282, 4130.769, 4132.821, 4137.821, 4136.538, 4138.077, 4189.359, 4902.821, 4136.154, 4138.846, 0, 0, []
1649066941.8322, 43, 0, 4131.538, 4128.718, 4133.333, 4136.795, 4135.128, 4128.718, 4128.077, 4136.667, 4138.974, 4137.821, 4184.615, 4902.308, 4133.974, 4138.846, 0, 0, []
1649066941.84, 44, 0, 4133.077, 4129.359, 4128.333, 4135.256, 4135.513, 4129.231, 4128.333, 4135.897, 4136.154, 4137.821, 4185, 4902.436, 4135.385, 4139.487, 0, 0, []
1649066941.8478, 45, 0, 4131.538, 4131.795, 4132.821, 4135.897, 4135.641, 4129.103, 4135, 4136.795, 4135, 4137.821, 4188.205, 4903.462, 4137.051, 4138.205, 0, 0, []
1649066941.8557, 46, 0, 4132.051, 4133.205, 4138.462, 4136.667, 4133.333, 4128.718, 4135.128, 4136.026, 4137.692, 4136.923, 4188.333, 4904.231, 4133.718, 4137.436, 0, 0, []
1649066941.8635, 47, 0, 4133.718, 4131.667, 4134.231, 4136.154, 4133.077, 4130.769, 4129.744, 4135, 4137.564, 4135.897, 4186.923, 4903.333, 4133.077, 4139.744, 0, 0, []
1649066941.8715, 48, 0, 4130.513, 4127.179, 4131.795, 4136.41, 4135.128, 4130.128, 4132.436, 4135.513, 4135, 4135.513, 4187.308, 4903.718, 4132.949, 4138.846, 0, 0, []
1649066941.8793, 49, 0, 4130.385, 4131.667, 4133.974, 4135.897, 4135.385, 4128.462, 4134.615, 4135.769, 4135.769, 4137.051, 4188.718, 4903.077, 4134.231, 4138.462, 0, 0, []
1649066941.8873, 50, 0, 4132.051, 4135.256, 4137.179, 4135.385, 4134.615, 4129.744, 4131.538, 4134.615, 4137.051, 4138.718, 4187.051, 4901.154, 4133.974, 4137.821, 0, 0, []
1649066941.8952, 51, 0, 4131.923, 4130.897, 4133.59, 4136.026, 4136.282, 4133.718, 4132.308, 4133.974, 4135.385, 4138.205, 4185, 4902.436, 4134.872, 4138.59, 0, 0, []
1649066941.9032, 52, 0, 4130.897, 4129.872, 4129.359, 4136.282, 4137.179, 4133.59, 4132.949, 4134.872, 4136.026, 4137.692, 4186.026, 4903.077, 4138.974, 4142.051, 0, 0, []
1649066941.9111, 53, 0, 4128.974, 4131.795, 4133.205, 4136.282, 4135.128, 4129.615, 4129.872, 4136.026, 4137.821, 4137.179, 4186.41, 4901.282, 4137.564, 4139.744, 0, 0, []
1649066941.919, 54, 0, 4130.897, 4131.923, 4130.897, 4136.667, 4134.231, 4130.128, 4129.872, 4136.41, 4137.179, 4137.051, 4187.051, 4901.154, 4138.462, 4139.103, 0, 0, []
1649066941.9269, 55, 0, 4133.077, 4127.949, 4129.487, 4136.923, 4135.897, 4130, 4133.718, 4136.282, 4136.795, 4138.077, 4187.051, 4902.308, 4138.077, 4139.103, 0, 0, []
1649066941.9349, 56, 0, 4132.692, 4130.897, 4133.846, 4135.897, 4136.282, 4130, 4135.769, 4136.154, 4136.41, 4138.59, 4185.897, 4901.282, 4134.615, 4138.333, 0, 0, []
1649066941.9428, 57, 0, 4133.462, 4136.154, 4133.333, 4135.385, 4135.128, 4132.179, 4133.59, 4136.41, 4135.385, 4137.564, 4186.154, 4899.615, 4137.051, 4139.359, 0, 0, []
1649066941.9508, 58, 0, 4132.949, 4132.308, 4133.205, 4137.821, 4135.256, 4131.41, 4127.949, 4136.282, 4136.282, 4136.923, 4186.41, 4902.436, 4135.897, 4138.333, 0, 0, []
1649066941.9586, 59, 0, 4132.692, 4131.923, 4131.026, 4138.718, 4134.231, 4131.282, 4128.462, 4136.154, 4138.077, 4137.436, 4186.154, 4903.846, 4134.744, 4140.385, 0, 0, []
1649066941.9666, 60, 0, 4131.923, 4130.897, 4130.385, 4135, 4132.564, 4128.718, 4134.487, 4136.154, 4137.436, 4136.667, 4186.154, 4900.513, 4135.513, 4140, 0, 0, []
1649066941.9745, 61, 0, 4131.923, 4130.385, 4136.667, 4132.949, 4134.231, 4127.436, 4134.487, 4136.154, 4135.513, 4135.769, 4186.154, 4898.333, 4133.718, 4137.692, 0, 0, []
1649066941.9823, 62, 0, 4133.846, 4135.513, 4136.795, 4135.513, 4136.026, 4130.128, 4132.308, 4136.154, 4135.256, 4136.282, 4186.154, 4901.41, 4134.103, 4140.513, 0, 0, []
1649066941.9902, 63, 0, 4130.256, 4132.821, 4134.872, 4136.538, 4135, 4130, 4134.744, 4136.154, 4135.513, 4136.667, 4186.154, 4906.41, 4135, 4138.59, 0, 0, []
1649066941.9979, 64, 0, 4128.462, 4130.385, 4137.051, 4136.41, 4135.385, 4131.154, 4133.974, 4136.026, 4136.41, 4135.641, 4186.026, 4905, 4136.923, 4139.487, 0, 0, []
1649066942.0058, 65, 0, 4131.282, 4131.282, 4137.949, 4135.256, 4136.538, 4131.667, 4131.795, 4136.154, 4137.692, 4136.41, 4186.538, 4902.564, 4135.897, 4142.949, 0, 0, []
1649066942.0136, 66, 0, 4131.538, 4129.872, 4133.205, 4133.718, 4135.128, 4130.385, 4132.179, 4136.154, 4137.564, 4139.359, 4186.282, 4903.205, 4133.846, 4139.103, 0, 0, []
1649066942.0215, 67, 0, 4132.821, 4132.949, 4128.59, 4134.359, 4134.231, 4128.846, 4132.436, 4136.154, 4137.821, 4139.872, 4185.513, 4901.795, 4137.308, 4137.564, 0, 0, []
1649066942.0293, 68, 0, 4133.077, 4133.077, 4131.667, 4136.026, 4136.026, 4128.846, 4134.359, 4136.154, 4138.205, 4137.308, 4187.436, 4903.333, 4134.615, 4137.821, 0, 0, []
1649066942.0371, 69, 0, 4131.923, 4131.667, 4134.103, 4136.538, 4136.538, 4133.205, 4134.359, 4136.154, 4137.692, 4136.538, 4188.846, 4903.462, 4132.308, 4138.077, 0, 0, []
1649066942.0449, 70, 0, 4131.667, 4134.487, 4133.718, 4136.282, 4134.744, 4133.077, 4131.41, 4136.154, 4137.308, 4139.103, 4186.667, 4898.718, 4136.538, 4138.974, 0, 0, []
1649066942.0528, 71, 0, 4132.436, 4135.641, 4133.462, 4136.154, 4135, 4129.615, 4134.359, 4136.154, 4137.436, 4140.897, 4185.641, 4901.026, 4135.128, 4138.333, 0, 0, []
1649066942.0606, 72, 0, 4133.077, 4131.667, 4130, 4135.513, 4135.385, 4130.513, 4134.231, 4136.282, 4137.051, 4139.744, 4186.923, 4906.026, 4133.974, 4141.282, 0, 0, []
1649066942.0685, 73, 0, 4131.154, 4126.538, 4132.949, 4135.897, 4134.359, 4130.385, 4127.308, 4135.641, 4136.282, 4137.436, 4186.795, 4902.821, 4133.462, 4141.41, 0, 0, []
1649066942.0762, 74, 0, 4132.692, 4130, 4137.179, 4137.179, 4135.385, 4131.154, 4128.462, 4134.487, 4136.795, 4136.667, 4185.769, 4900.385, 4133.718, 4139.615, 0, 0, []
1649066942.0842, 75, 0, 4134.615, 4133.077, 4132.949, 4136.923, 4135.897, 4132.692, 4132.949, 4134.359, 4135.769, 4136.923, 4185.769, 4903.077, 4137.949, 4139.231, 0, 0, []
1649066942.0921, 76, 0, 4132.051, 4131.923, 4133.846, 4137.821, 4135, 4131.923, 4131.41, 4134.487, 4134.231, 4136.538, 4185.128, 4902.821, 4138.205, 4138.59, 0, 0, []
1649066942.1001, 77, 0, 4132.564, 4132.179, 4137.051, 4137.179, 4134.744, 4131.282, 4132.179, 4134.231, 4135.641, 4137.179, 4185, 4900, 4136.667, 4140.128, 0, 0, []
1649066942.108, 78, 0, 4133.333, 4129.231, 4134.359, 4135.256, 4135.513, 4130.385, 4135.897, 4134.615, 4137.821, 4137.308, 4185.128, 4900.769, 4132.564, 4140, 0, 0, []
1649066942.1159, 79, 0, 4131.667, 4128.846, 4133.846, 4136.538, 4134.872, 4130.641, 4133.718, 4135.897, 4137.949, 4136.282, 4185.128, 4901.923, 4131.154, 4143.205, 0, 0, []
1649066942.1238, 80, 0, 4130.256, 4131.667, 4136.41, 4136.026, 4134.231, 4131.667, 4130.513, 4136.538, 4138.333, 4138.333, 4185.128, 4903.846, 4136.026, 4144.487, 0, 0, []
1649066942.1318, 81, 0, 4129.615, 4130.256, 4134.615, 4133.846, 4135.513, 4131.795, 4133.333, 4136.282, 4139.359, 4140.385, 4185, 4905.897, 4136.282, 4137.821, 0, 0, []
1649066942.1397, 82, 0, 4132.692, 4132.308, 4127.179, 4135.128, 4136.41, 4132.436, 4133.205, 4136.026, 4138.205, 4139.103, 4184.872, 4902.436, 4136.667, 4138.077, 0, 0, []
1649066942.1477, 83, 0, 4132.949, 4134.231, 4129.744, 4137.821, 4134.615, 4131.41, 4131.41, 4136.282, 4137.564, 4138.718, 4185.385, 4899.231, 4135.256, 4140.385, 0, 0, []
1649066942.1555, 84, 0, 4132.308, 4132.692, 4136.41, 4137.564, 4134.487, 4131.667, 4132.564, 4136.026, 4137.564, 4139.103, 4184.872, 4901.154, 4132.692, 4138.974, 0, 0, []
1649066942.1633, 85, 0, 4132.436, 4131.154, 4134.872, 4136.282, 4136.026, 4132.308, 4135.769, 4135.128, 4136.538, 4137.308, 4184.744, 4899.487, 4135.769, 4140.256, 0, 0, []
1649066942.1712, 86, 0, 4129.487, 4129.744, 4133.462, 4136.41, 4133.462, 4131.538, 4135, 4135.128, 4136.026, 4135.641, 4187.051, 4898.59, 4133.205, 4140, 0, 0, []
1649066942.179, 87, 0, 4131.923, 4132.051, 4132.949, 4137.308, 4131.154, 4131.923, 4127.949, 4135.897, 4137.564, 4136.154, 4188.846, 4900.641, 4131.923, 4138.974, 0, 0, []
1649066942.1869, 88, 0, 4133.974, 4130, 4134.744, 4135.769, 4134.103, 4129.103, 4127.051, 4136.282, 4137.051, 4137.051, 4187.949, 4900.385, 4133.718, 4136.41, 0, 0, []
1649066942.1946, 89, 0, 4130.769, 4128.333, 4133.59, 4132.308, 4135.641, 4128.718, 4134.359, 4136.282, 4134.487, 4136.538, 4186.795, 4899.744, 4134.872, 4137.179, 0, 0, []
1649066942.2026, 90, 0, 4131.41, 4135.769, 4130.385, 4133.59, 4134.744, 4130.128, 4131.282, 4135.385, 4136.795, 4137.051, 4186.795, 4899.487, 4138.333, 4142.308, 0, 0, []
1649066942.2105, 91, 0, 4134.487, 4133.333, 4133.333, 4136.923, 4135.897, 4128.718, 4126.282, 4134.744, 4139.103, 4138.59, 4186.923, 4899.359, 4137.179, 4139.872, 0, 0, []
1649066942.2185, 92, 0, 4136.154, 4130.128, 4131.282, 4135.513, 4136.282, 4130.897, 4130.769, 4136.667, 4138.205, 4138.846, 4186.282, 4900.897, 4135.513, 4139.744, 0, 0, []
1649066942.2264, 93, 0, 4134.615, 4133.462, 4130.513, 4134.615, 4134.872, 4132.436, 4129.359, 4137.821, 4136.923, 4137.692, 4185.256, 4904.615, 4133.846, 4141.923, 0, 0, []
1649066942.2343, 94, 0, 4132.564, 4134.615, 4134.744, 4136.795, 4134.872, 4131.026, 4127.051, 4136.282, 4136.667, 4136.795, 4184.615, 4904.615, 4133.333, 4139.744, 0, 0, []
1649066942.2422, 95, 0, 4132.564, 4133.077, 4129.872, 4135.641, 4134.359, 4131.795, 4130.513, 4135.897, 4136.923, 4137.564, 4185.256, 4901.795, 4137.051, 4140.385, 0, 0, []
1649066942.2502, 96, 0, 4133.077, 4132.564, 4129.615, 4134.872, 4134.359, 4131.795, 4129.615, 4136.795, 4136.026, 4138.462, 4185, 4901.41, 4135.385, 4139.744, 0, 0, []
1649066942.2581, 97, 0, 4133.974, 4133.846, 4137.692, 4136.538, 4134.487, 4130, 4128.333, 4135.769, 4136.026, 4138.462, 4184.744, 4900, 4134.231, 4137.564, 0, 0, []
1649066942.2661, 98, 0, 4132.179, 4130.385, 4137.949, 4133.59, 4134.359, 4130.513, 4127.949, 4134.615, 4137.308, 4137.949, 4185.641, 4902.308, 4135.256, 4137.051, 0, 0, []
1649066942.2739, 99, 0, 4130.897, 4131.795, 4133.077, 4131.923, 4134.487, 4133.718, 4126.282, 4135.513, 4136.41, 4138.462, 4187.051, 4905, 4134.487, 4139.231, 0, 0, []
1649066942.2819, 100, 0, 4133.205, 4135.769, 4131.538, 4135, 4134.487, 4132.308, 4129.103, 4136.282, 4135.769, 4138.846, 4187.564, 4902.436, 4137.179, 4142.051, 0, 0, []
1649066942.2898, 101, 0, 4133.718, 4128.846, 4134.744, 4137.436, 4134.487, 4127.949, 4135.256, 4136.154, 4137.821, 4136.538, 4186.923, 4900.769, 4134.744, 4138.718, 0, 0, []
1649066942.2976, 102, 0, 4136.026, 4127.692, 4136.538, 4136.795, 4134.487, 4130.769, 4132.564, 4136.154, 4137.821, 4136.795, 4186.538, 4899.872, 4131.923, 4139.359, 0, 0, []
1649066942.3055, 103, 0, 4135, 4133.205, 4133.974, 4135.513, 4134.487, 4132.051, 4131.41, 4135.897, 4136.41, 4138.59, 4186.923, 4898.846, 4133.59, 4142.564, 0, 0, []
1649066942.3132, 104, 0, 4129.872, 4132.051, 4132.179, 4136.282, 4134.487, 4128.974, 4135.641, 4135.256, 4137.692, 4138.718, 4187.179, 4902.179, 4131.667, 4138.333, 0, 0, []
1649066942.3211, 105, 0, 4131.667, 4132.692, 4130.128, 4136.538, 4134.487, 4131.538, 4132.179, 4135.256, 4137.564, 4138.59, 4187.308, 4902.692, 4134.487, 4136.667, 0, 0, []
1649066942.3289, 106, 0, 4131.923, 4134.872, 4133.846, 4134.231, 4134.359, 4132.436, 4131.538, 4135.769, 4135.385, 4137.179, 4187.179, 4899.744, 4135.385, 4136.795, 0, 0, []
1649066942.3368, 107, 0, 4130.897, 4133.59, 4136.154, 4134.359, 4134.359, 4130, 4134.615, 4136.154, 4137.179, 4135.513, 4186.538, 4899.615, 4133.974, 4138.59, 0, 0, []
1649066942.3446, 108, 0, 4134.487, 4131.282, 4132.308, 4135.897, 4134.744, 4129.487, 4129.872, 4136.795, 4138.333, 4138.077, 4185.256, 4899.615, 4135.385, 4140.513, 0, 0, []
1649066942.3524, 109, 0, 4133.718, 4129.615, 4133.974, 4133.718, 4134.103, 4129.359, 4125.256, 4137.308, 4136.154, 4140.385, 4184.872, 4900.897, 4136.41, 4137.821, 0, 0, []
1649066942.3602, 110, 0, 4131.923, 4130.641, 4133.846, 4133.462, 4134.231, 4130.513, 4130.641, 4133.462, 4136.667, 4137.564, 4185, 4900.769, 4138.974, 4138.846, 0, 0, []
1649066942.3681, 111, 0, 4133.205, 4129.231, 4133.333, 4136.538, 4136.41, 4131.154, 4137.821, 4131.667, 4137.564, 4136.923, 4185.256, 4898.333, 4136.282, 4139.744, 0, 0, []
1649066942.3759, 112, 0, 4134.487, 4131.41, 4134.103, 4136.538, 4136.795, 4130.513, 4134.231, 4134.615, 4137.051, 4138.846, 4184.872, 4897.949, 4132.949, 4138.333, 0, 0, []
1649066942.3838, 113, 0, 4131.667, 4133.462, 4134.359, 4135.385, 4135, 4129.487, 4129.359, 4136.538, 4137.564, 4137.821, 4184.615, 4899.487, 4133.718, 4137.564, 0, 0, []
1649066942.3915, 114, 0, 4129.872, 4130.641, 4134.872, 4137.821, 4135.256, 4131.41, 4135.128, 4136.026, 4138.205, 4135.385, 4186.154, 4900.769, 4133.846, 4136.795, 0, 0, []
1649066942.3994, 115, 0, 4133.974, 4132.949, 4131.923, 4137.436, 4136.795, 4133.205, 4135.769, 4136.154, 4137.692, 4136.538, 4186.667, 4899.615, 4136.282, 4140.641, 0, 0, []
1649066942.4072, 116, 0, 4132.051, 4132.821, 4132.051, 4134.744, 4135.897, 4128.462, 4127.564, 4135.513, 4136.923, 4139.487, 4185.513, 4899.359, 4133.974, 4140.256, 0, 0, []
1649066942.4152, 117, 0, 4128.974, 4132.051, 4131.667, 4134.615, 4135.256, 4129.231, 4128.974, 4134.487, 4135.641, 4139.231, 4186.41, 4900.641, 4133.333, 4138.846, 0, 0, []
1649066942.4231, 118, 0, 4132.436, 4134.744, 4129.872, 4135.513, 4136.282, 4133.846, 4133.205, 4135.256, 4135.256, 4136.282, 4187.179, 4902.051, 4137.821, 4140.769, 0, 0, []
1649066942.4311, 119, 0, 4132.564, 4134.231, 4133.718, 4136.923, 4136.154, 4132.821, 4131.667, 4135.256, 4137.051, 4136.41, 4185.256, 4902.692, 4136.667, 4139.487, 0, 0, []
1649066942.4389, 120, 0, 4130.128, 4133.846, 4133.59, 4136.41, 4135.513, 4133.462, 4130.256, 4135.513, 4137.179, 4139.872, 4184.744, 4900.256, 4136.026, 4140.256, 0, 0, []
1649066942.4469, 121, 0, 4129.231, 4130.513, 4132.308, 4136.154, 4135.769, 4132.821, 4128.974, 4136.538, 4134.872, 4139.872, 4186.41, 4900.256, 4135.128, 4141.923, 0, 0, []
1649066942.4548, 122, 0, 4132.179, 4128.718, 4133.974, 4135.769, 4136.538, 4130.513, 4129.103, 4136.154, 4133.846, 4138.846, 4186.282, 4902.308, 4133.205, 4141.667, 0, 0, []
1649066942.4626, 123, 0, 4135.256, 4132.436, 4134.103, 4134.231, 4136.282, 4130.385, 4130.513, 4136.154, 4135.641, 4139.615, 4185.897, 4900.769, 4137.179, 4141.154, 0, 0, []
1649066942.4705, 124, 0, 4132.308, 4131.41, 4133.974, 4135.513, 4135.128, 4129.872, 4129.872, 4136.282, 4138.333, 4139.487, 4186.154, 4900.128, 4136.41, 4137.308, 0, 0, []
1649066942.4782, 125, 0, 4131.923, 4131.667, 4131.538, 4135.513, 4134.487, 4129.872, 4130.897, 4136.154, 4138.205, 4139.359, 4186.154, 4900.897, 4134.744, 4139.487, 0, 0, []
1649066942.4862, 126, 0, 4133.718, 4133.077, 4131.154, 4135.385, 4135.641, 4129.359, 4136.538, 4136.282, 4136.667, 4139.359, 4186.154, 4900, 4135.897, 4142.949, 0, 0, []
1649066942.4941, 127, 0, 4132.308, 4135.385, 4132.564, 4136.667, 4136.41, 4131.282, 4135.897, 4136.026, 4135.897, 4139.359, 4186.154, 4899.872, 4135.256, 4139.487, 57, 0, []
1649066942.502, 0, 0, 4133.077, 4138.462, 4131.282, 4135.897, 4136.026, 4132.692, 4130.769, 4136.026, 4137.949, 4139.487, 4186.154, 4899.615, 4136.154, 4137.949, 0, 0, []
1649066942.5098, 1, 0, 4132.564, 4132.821, 4132.436, 4135, 4136.026, 4131.282, 4135.513, 4136.667, 4139.231, 4139.615, 4186.154, 4899.487, 4135, 4136.923, 0, 0, []
1649066942.5177, 2, 0, 4130.897, 4132.051, 4131.282, 4136.282, 4136.282, 4132.179, 4136.667, 4135.513, 4137.308, 4139.103, 4185.897, 4900.641, 4136.282, 4138.974, 0, 0, []
1649066942.5256, 3, 0, 4130.385, 4136.667, 4130.897, 4136.282, 4136.154, 4131.154, 4128.462, 4134.615, 4136.154, 4139.615, 4186.282, 4903.077, 4136.538, 4140.385, 0, 0, []
1649066942.5336, 4, 0, 4131.026, 4134.487, 4133.205, 4135.769, 4136.154, 4129.615, 4128.077, 4136.41, 4137.179, 4140.128, 4186.026, 4900.256, 4133.077, 4136.538, 0, 0, []
1649066942.5415, 5, 0, 4132.051, 4131.538, 4131.538, 4137.051, 4136.154, 4131.282, 4131.026, 4136.667, 4136.538, 4138.077, 4185.128, 4894.359, 4135.641, 4138.846, 0, 0, []
1649066942.5495, 6, 0, 4131.795, 4132.564, 4131.282, 4135.897, 4136.154, 4131.41, 4128.59, 4134.872, 4134.615, 4136.154, 4186.41, 4896.795, 4135.769, 4140, 0, 0, []
1649066942.5573, 7, 0, 4134.103, 4137.179, 4131.667, 4134.231, 4136.154, 4132.051, 4129.872, 4136.026, 4136.282, 4137.179, 4187.051, 4902.179, 4135.513, 4138.59, 0, 0, []
1649066942.5653, 8, 0, 4133.718, 4135, 4130.256, 4136.026, 4136.154, 4132.051, 4132.436, 4137.821, 4138.333, 4138.205, 4186.026, 4903.462, 4136.923, 4137.949, 0, 0, []
1649066942.5732, 9, 0, 4131.026, 4129.231, 4133.718, 4136.795, 4136.154, 4130.513, 4129.744, 4136.795, 4137.564, 4137.692, 4187.821, 4900.385, 4133.974, 4139.231, 0, 0, []
1649066942.5812, 10, 0, 4132.308, 4133.077, 4135.256, 4135.385, 4136.154, 4130.897, 4129.872, 4135.513, 4136.282, 4137.821, 4189.103, 4895, 4134.231, 4141.41, 0, 0, []
1649066942.5891, 11, 0, 4132.436, 4134.615, 4132.179, 4136.41, 4136.154, 4130.897, 4134.744, 4135, 4136.795, 4137.821, 4187.564, 4896.667, 4135.256, 4137.821, 0, 0, []
1649066942.597, 12, 0, 4132.308, 4133.718, 4131.41, 4137.564, 4136.154, 4132.308, 4135.641, 4134.231, 4138.205, 4137.692, 4187.436, 4901.41, 4137.051, 4138.974, 0, 0, []
1649066942.6049, 13, 0, 4132.308, 4133.333, 4135.256, 4135.256, 4136.154, 4131.026, 4132.564, 4134.231, 4137.179, 4138.462, 4188.974, 4900.385, 4137.051, 4140, 0, 0, []
1649066942.6127, 14, 0, 4132.436, 4133.205, 4136.154, 4135, 4136.154, 4128.846, 4130.513, 4134.615, 4135.513, 4137.564, 4189.103, 4899.872, 4132.179, 4136.41, 0, 0, []
1649066942.6206, 15, 0, 4134.487, 4131.923, 4131.026, 4137.051, 4136.154, 4132.821, 4131.41, 4134.615, 4136.41, 4136.282, 4187.821, 4899.744, 4133.59, 4141.154, 0, 0, []
1649066942.6284, 16, 0, 4132.179, 4127.821, 4132.308, 4136.667, 4136.154, 4135.256, 4136.026, 4134.872, 4138.718, 4137.051, 4187.692, 4899.487, 4135.897, 4143.718, 0, 0, []
1649066942.6362, 17, 0, 4131.41, 4130, 4134.615, 4136.282, 4136.154, 4133.846, 4134.615, 4135.513, 4138.077, 4136.923, 4187.949, 4900.128, 4136.282, 4139.231, 0, 0, []
1649066942.644, 18, 0, 4133.333, 4134.872, 4131.026, 4136.154, 4136.154, 4133.974, 4131.41, 4136.538, 4136.154, 4136.795, 4187.949, 4899.744, 4137.051, 4137.564, 0, 0, []
1649066942.6519, 19, 0, 4131.282, 4133.462, 4133.205, 4135.128, 4136.154, 4133.846, 4134.231, 4136.667, 4135.897, 4137.308, 4187.051, 4900.897, 4133.59, 4138.718, 0, 0, []
1649066942.6597, 20, 0, 4131.667, 4133.846, 4134.487, 4135.769, 4136.154, 4131.538, 4130.256, 4135.513, 4136.667, 4136.667, 4187.051, 4900.897, 4133.974, 4141.795, 0, 0, []
1649066942.6676, 21, 0, 4132.179, 4133.718, 4132.564, 4135.641, 4136.154, 4128.974, 4124.231, 4135, 4135.769, 4138.205, 4186.795, 4898.205, 4134.744, 4140.769, 0, 0, []
1649066942.6753, 22, 0, 4132.308, 4133.077, 4131.923, 4132.692, 4136.154, 4131.026, 4128.59, 4135.897, 4136.026, 4141.026, 4185.897, 4897.308, 4135, 4138.205, 0, 0, []
1649066942.6832, 23, 0, 4132.692, 4131.538, 4131.282, 4133.333, 4136.154, 4130.769, 4133.077, 4136.667, 4138.077, 4139.744, 4186.154, 4899.103, 4136.923, 4141.154, 0, 0, []
1649066942.691, 24, 0, 4129.872, 4131.538, 4135.513, 4137.308, 4136.154, 4128.077, 4134.872, 4136.282, 4136.923, 4137.436, 4186.282, 4900.256, 4134.103, 4140.128, 0, 0, []
1649066942.6989, 25, 0, 4130.513, 4135.897, 4137.051, 4136.41, 4136.154, 4130.897, 4133.462, 4136.026, 4135.256, 4138.077, 4186.154, 4900.128, 4133.333, 4137.564, 0, 0, []
1649066942.7067, 26, 0, 4133.462, 4132.308, 4134.103, 4134.103, 4136.154, 4132.949, 4128.333, 4136.667, 4137.051, 4137.949, 4186.154, 4900.769, 4133.846, 4138.205, 0, 0, []
1649066942.7145, 27, 0, 4132.692, 4127.179, 4132.564, 4135.769, 4136.154, 4132.051, 4127.308, 4136.154, 4137.821, 4136.667, 4186.282, 4899.744, 4135, 4140.769, 0, 0, []
1649066942.7223, 28, 0, 4130.897, 4133.462, 4130.256, 4137.179, 4136.154, 4130.256, 4133.462, 4134.744, 4136.41, 4136.795, 4186.154, 4896.667, 4136.795, 4141.923, 0, 0, []
1649066942.7303, 29, 0, 4130.769, 4136.154, 4133.59, 4136.538, 4136.154, 4129.487, 4136.795, 4134.872, 4135.641, 4136.667, 4186.154, 4897.949, 4132.308, 4139.359, 0, 0, []
1649066942.7382, 30, 0, 4132.436, 4133.974, 4136.795, 4135.769, 4136.154, 4133.205, 4132.436, 4136.026, 4136.282, 4137.949, 4186.282, 4901.026, 4133.462, 4140.897, 0, 0, []
1649066942.7462, 31, 0, 4131.41, 4131.667, 4133.974, 4135.641, 4136.154, 4132.692, 4131.154, 4136.41, 4137.308, 4139.103, 4186.282, 4901.026, 4134.231, 4139.872, 0, 0, []
1649066942.754, 32, 0, 4131.795, 4133.974, 4129.744, 4135.897, 4136.154, 4130.513, 4137.051, 4136.026, 4137.436, 4138.077, 4186.154, 4900.128, 4131.282, 4138.077, 0, 0, []
1649066942.7618, 33, 0, 4133.59, 4137.692, 4130.256, 4135.513, 4136.154, 4131.026, 4134.872, 4135.641, 4136.026, 4137.051, 4186.154, 4900.769, 4135.256, 4141.154, 0, 0, []
1649066942.7697, 34, 0, 4132.179, 4133.718, 4135.256, 4135.641, 4136.154, 4130.256, 4125.897, 4134.872, 4136.282, 4137.308, 4186.41, 4901.923, 4136.923, 4138.205, 0, 0, []
1649066942.7775, 35, 0, 4132.821, 4131.026, 4134.359, 4136.538, 4136.154, 4132.436, 4127.436, 4134.359, 4137.179, 4137.179, 4186.026, 4899.359, 4135.256, 4139.872, 0, 0, []
1649066942.7854, 36, 0, 4133.205, 4130.128, 4132.436, 4136.795, 4136.154, 4132.692, 4135.641, 4134.872, 4135.256, 4136.795, 4186.282, 4896.923, 4135.769, 4142.436, 0, 0, []
1649066942.7931, 37, 0, 4131.667, 4131.154, 4132.308, 4136.795, 4136.282, 4129.615, 4135.513, 4135.769, 4134.103, 4136.667, 4187.436, 4898.59, 4136.795, 4138.974, 0, 0, []
1649066942.8011, 38, 0, 4133.333, 4136.538, 4128.846, 4135.641, 4136.41, 4130, 4130.128, 4136.282, 4136.538, 4137.051, 4187.692, 4898.846, 4136.667, 4140.256, 0, 0, []
1649066942.809, 39, 0, 4133.077, 4134.487, 4132.564, 4135.385, 4135.513, 4131.154, 4127.821, 4136.282, 4137.821, 4137.308, 4186.795, 4898.846, 4134.359, 4140.256, 0, 0, []
1649066942.817, 40, 0, 4131.923, 4131.923, 4137.308, 4136.667, 4136.667, 4131.154, 4128.974, 4136.154, 4136.41, 4138.59, 4185.641, 4898.846, 4136.282, 4138.462, 0, 0, []
1649066942.8249, 41, 0, 4133.205, 4132.564, 4133.846, 4136.282, 4136.667, 4130.128, 4134.231, 4136.026, 4136.538, 4141.41, 4186.154, 4900.897, 4138.333, 4138.077, 0, 0, []
1649066942.8328, 42, 0, 4134.103, 4134.615, 4129.872, 4135.385, 4133.205, 4130.897, 4136.538, 4136.026, 4137.949, 4140.641, 4187.692, 4903.846, 4136.154, 4137.821, 0, 0, []
1649066942.8407, 43, 0, 4132.564, 4134.103, 4130.513, 4136.538, 4132.692, 4131.667, 4131.282, 4136.154, 4137.436, 4137.308, 4186.923, 4901.41, 4136.282, 4139.744, 0, 0, []
1649066942.8487, 44, 0, 4129.615, 4127.308, 4133.59, 4135.897, 4136.026, 4130.385, 4132.436, 4136.154, 4136.026, 4136.795, 4185.897, 4898.846, 4135.769, 4139.103, 0, 0, []
1649066942.8566, 45, 0, 4130.769, 4128.846, 4131.154, 4133.59, 4136.282, 4130.513, 4135.385, 4136.154, 4135.769, 4137.436, 4186.667, 4897.821, 4137.692, 4139.231, 0, 0, []
1649066942.8646, 46, 0, 4133.077, 4134.872, 4130.128, 4134.487, 4133.846, 4129.872, 4132.436, 4136.154, 4135.385, 4136.923, 4187.051, 4896.795, 4137.821, 4138.974, 0, 0, []
1649066942.8724, 47, 0, 4132.308, 4134.872, 4134.872, 4135.897, 4134.103, 4130.256, 4132.308, 4136.154, 4135, 4137.308, 4186.667, 4897.949, 4130.513, 4137.308, 0, 0, []
1649066942.8804, 48, 0, 4132.051, 4136.282, 4133.59, 4134.744, 4135, 4133.333, 4133.205, 4136.154, 4136.026, 4139.615, 4187.436, 4900.897, 4132.436, 4139.231, 0, 0, []
1649066942.8883, 49, 0, 4131.282, 4133.974, 4133.077, 4135.385, 4134.872, 4133.846, 4130.897, 4136.154, 4136.923, 4139.487, 4187.692, 4901.538, 4136.282, 4138.59, 0, 0, []
1649066942.8963, 50, 0, 4133.205, 4131.667, 4133.59, 4137.436, 4135.385, 4132.692, 4130.513, 4136.154, 4137.051, 4137.821, 4186.667, 4899.103, 4136.282, 4139.744, 0, 0, []
1649066942.9042, 51, 0, 4133.333, 4134.615, 4130.897, 4136.41, 4135.385, 4129.487, 4133.846, 4136.154, 4136.026, 4137.179, 4186.282, 4900.513, 4137.821, 4140.769, 0, 0, []
1649066942.9119, 52, 0, 4130.513, 4135.897, 4133.974, 4135.641, 4134.744, 4128.846, 4134.231, 4136.154, 4136.282, 4137.179, 4186.026, 4903.462, 4133.59, 4138.077, 0, 0, []
1649066942.9198, 53, 0, 4132.821, 4132.821, 4137.051, 4134.872, 4133.59, 4131.923, 4133.077, 4136.154, 4137.692, 4136.795, 4186.026, 4900.513, 4132.179, 4141.667, 0, 0, []
1649066942.9276, 54, 0, 4133.333, 4127.692, 4136.41, 4135.128, 4133.205, 4130.641, 4134.359, 4136.154, 4136.795, 4137.308, 4186.154, 4898.462, 4133.59, 4142.949, 0, 0, []
1649066942.9355, 55, 0, 4131.795, 4129.487, 4132.692, 4136.154, 4135.128, 4132.051, 4135.128, 4136.154, 4135.769, 4138.718, 4185.897, 4900, 4134.231, 4137.692, 0, 0, []
1649066942.9433, 56, 0, 4132.436, 4134.872, 4130.769, 4135.769, 4136.026, 4133.333, 4130.513, 4136.154, 4136.41, 4137.821, 4186.154, 4900.513, 4135.256, 4137.179, 0, 0, []
1649066942.9511, 57, 0, 4131.282, 4132.051, 4135.769, 4135.513, 4134.231, 4129.872, 4126.282, 4136.282, 4136.282, 4136.667, 4186.026, 4901.795, 4133.205, 4138.718, 0, 0, []
1649066942.9589, 58, 0, 4131.923, 4131.923, 4134.744, 4135.256, 4135.256, 4130.385, 4129.744, 4136.154, 4136.154, 4136.923, 4185.769, 4901.282, 4135.256, 4139.744, 0, 0, []
1649066942.9668, 59, 0, 4131.538, 4134.103, 4130.769, 4136.026, 4135.128, 4130.897, 4136.41, 4135.897, 4136.667, 4136.41, 4186.538, 4901.282, 4137.179, 4138.59, 0, 0, []
1649066942.9746, 60, 0, 4130.897, 4133.846, 4133.59, 4136.41, 4132.692, 4131.282, 4134.615, 4136.282, 4135.513, 4136.026, 4186.667, 4902.051, 4135.256, 4138.077, 0, 0, []
1649066942.9825, 61, 0, 4131.538, 4132.821, 4135.897, 4135.769, 4133.974, 4132.179, 4133.077, 4136.154, 4136.667, 4136.41, 4186.282, 4900.385, 4136.154, 4139.872, 0, 0, []
1649066942.9902, 62, 0, 4130, 4131.41, 4136.923, 4136.282, 4136.795, 4131.026, 4137.564, 4135, 4138.59, 4136.154, 4188.462, 4898.974, 4136.026, 4138.333, 0, 0, []
1649066942.9981, 63, 0, 4131.538, 4131.667, 4135.256, 4136.538, 4135.769, 4130.128, 4134.615, 4135.385, 4136.41, 4136.282, 4189.359, 4898.718, 4137.308, 4139.231, 0, 0, []
1649066943.0059, 64, 0, 4133.077, 4130.385, 4134.744, 4135.641, 4133.846, 4129.103, 4133.333, 4137.179, 4135.641, 4136.41, 4187.051, 4902.564, 4137.564, 4139.359, 0, 0, []
1649066943.0139, 65, 0, 4130.897, 4132.436, 4136.282, 4136.41, 4133.846, 4128.718, 4138.077, 4137.692, 4136.923, 4136.026, 4186.538, 4904.615, 4137.949, 4139.231, 0, 0, []
1649066943.0218, 66, 0, 4132.308, 4132.821, 4134.872, 4137.821, 4134.359, 4129.359, 4129.487, 4137.179, 4136.154, 4136.538, 4188.333, 4898.974, 4139.615, 4141.282, 0, 0, []
1649066943.0297, 67, 0, 4134.615, 4126.795, 4134.744, 4136.538, 4136.026, 4128.333, 4123.333, 4137.436, 4134.744, 4138.077, 4187.692, 4898.077, 4134.744, 4136.667, 0, 0, []
1649066943.0376, 68, 0, 4133.462, 4129.615, 4133.077, 4134.872, 4136.154, 4130.128, 4131.923, 4137.564, 4135.641, 4138.077, 4186.154, 4901.667, 4133.846, 4137.692, 0, 0, []
1649066943.0456, 69, 0, 4131.026, 4135.641, 4134.103, 4135, 4134.744, 4132.949, 4131.41, 4137.436, 4136.154, 4136.923, 4186.795, 4899.615, 4136.667, 4140.385, 0, 0, []
1649066943.0535, 70, 0, 4132.179, 4136.154, 4137.308, 4135.897, 4134.615, 4131.282, 4127.308, 4137.436, 4135.641, 4136.795, 4186.795, 4897.436, 4135.769, 4137.308, 0, 0, []
1649066943.0615, 71, 0, 4132.564, 4132.821, 4134.231, 4136.538, 4135.385, 4128.205, 4131.154, 4137.436, 4137.564, 4137.051, 4186.282, 4900.385, 4137.051, 4140.256, 0, 0, []
1649066943.0693, 72, 0, 4127.949, 4129.231, 4133.462, 4136.282, 4135.641, 4128.462, 4129.744, 4137.436, 4137.949, 4136.923, 4184.872, 4901.795, 4134.103, 4140.385, 0, 0, []
1649066943.0773, 73, 0, 4131.026, 4131.026, 4132.821, 4135.256, 4135, 4131.41, 4127.179, 4137.436, 4136.923, 4136.795, 4184.615, 4900.385, 4133.333, 4136.923, 0, 0, []
1649066943.0852, 74, 0, 4136.026, 4130.513, 4131.154, 4135.385, 4135.128, 4129.744, 4131.795, 4137.436, 4137.564, 4136.923, 4185.897, 4901.41, 4134.872, 4137.564, 0, 0, []
1649066943.093, 75, 0, 4132.564, 4129.359, 4132.821, 4136.538, 4138.205, 4127.564, 4134.231, 4137.436, 4137.179, 4136.795, 4187.051, 4901.667, 4133.846, 4138.462, 0, 0, []
1649066943.1009, 76, 0, 4131.154, 4134.615, 4134.744, 4136.538, 4137.436, 4131.667, 4133.077, 4137.436, 4135.513, 4137.308, 4187.436, 4899.103, 4138.077, 4138.846, 0, 0, []
1649066943.1086, 77, 0, 4133.077, 4131.795, 4135.513, 4135.897, 4132.564, 4132.179, 4134.231, 4137.436, 4135.769, 4136.667, 4187.051, 4899.231, 4136.282, 4138.205, 0, 0, []
1649066943.1165, 78, 0, 4134.487, 4129.872, 4131.154, 4135.513, 4133.077, 4130, 4131.41, 4137.436, 4137.308, 4136.538, 4186.538, 4898.59, 4131.538, 4139.103, 0, 0, []
1649066943.1243, 79, 0, 4132.308, 4133.333, 4130.385, 4135.385, 4137.051, 4128.462, 4132.949, 4137.436, 4136.795, 4138.718, 4186.795, 4899.487, 4132.308, 4137.692, 0, 0, []
1649066943.1323, 80, 0, 4129.359, 4132.051, 4137.179, 4136.154, 4136.41, 4129.359, 4138.846, 4137.436, 4136.538, 4138.718, 4187.436, 4903.846, 4133.846, 4137.949, 0, 0, []
1649066943.1402, 81, 0, 4132.308, 4130.641, 4137.308, 4136.41, 4133.974, 4132.051, 4135.513, 4137.436, 4136.923, 4136.41, 4186.795, 4902.564, 4137.436, 4142.564, 0, 0, []
1649066943.1481, 82, 0, 4132.821, 4129.359, 4133.077, 4135.641, 4133.974, 4130.769, 4130.769, 4137.436, 4136.282, 4136.667, 4185.385, 4901.282, 4134.872, 4138.974, 0, 0, []
